# File: 20-06-07T194439.ast
# NOTEA     = None Attached.  RTLSDR Dongle Test
# NOTEB     = Spectral Integration
# OBSERVER  = Science Aficionado
# DEVICE    = rtl=0,bias=1
# DATADIR   = ../data/
# SITE      = None Attached.  RTLSDR Dongle Test
# CITY      = Seattle
# REGION    = Washington
# COUNTRY   = US
# TELTYPE   = UW CSE 490W Dish
# FRAME     = TOPO
# GAIN1     = 49.0
# GAIN2     = 11.0
# GAIN3     = 11.0
# GAIN4     = 0.0
# Count     = 2500
# CenterFreq= 1421500000.0
# Bandwidth = 2500000.0
# Duration  = 41.688768
# DeltaX    = 5859.375
# TSYS      = 200.0
# TRX       = 100.0
# TRMS      = 2.0
# TINT      = 1.0
# KPERC     = 100.0
# GAINFACT  = 1.0
# BUNIT     = Counts
# NCHAN     = 2048
# NSPEC     = 1
# NTIME     = 0
# NSAMPLES  = 0
# EPEAK     = 4.10875183718
# ERMS      = 0.995973393526
# EMJD      = 58568.808999981004 
# REFCHAN   = 1024.0
# REFSAMPL  = 256.0
# NAVE      = 50
# NMEDIAN   = 1024
# Fft_rate  = 5000
# UTC       = 2020-06-07 19:44:39.559478
# SECONDS   =       0.0000000000 
# LST       = 09:00:33.420
# AZ        = 180.0
# EL        = 90.0
# TELLON    = -57:41:09.900
# TELLAT    = +47:39:13.800
# RA        = 08:57:47.670
# DEC       = +47:48:34.900
# GALLON    = 171:50:08.20
# GALLAT    = +40:36:45.80
# ALT_SUN   = +37:33:24.2
# AZ_SUN    = +263:19:59.7
# ETAA      = 0.8
# ETAB      = 0.99
# POLANGLE  = 0.0
# TELSIZEAM = 1.0
# TELSIZEBM = 1.0
# AST_VERS  = 05.01
0000 1420250610 9.2082
0001 1420251831 8.9608
0002 1420253051 9.0007
0003 1420254272 9.0392
0004 1420255493 8.9850
0005 1420256713 8.9177
0006 1420257934 9.0002
0007 1420259155 8.9706
0008 1420260375 8.9755
0009 1420261596 9.1235
0010 1420262817 9.1324
0011 1420264038 9.1084
0012 1420265258 9.1097
0013 1420266479 9.3484
0014 1420267700 9.1424
0015 1420268920 9.1868
0016 1420270141 9.0925
0017 1420271362 9.1105
0018 1420272583 9.2132
0019 1420273803 9.2271
0020 1420275024 9.3202
0021 1420276245 9.2110
0022 1420277465 9.2670
0023 1420278686 9.3414
0024 1420279907 9.3055
0025 1420281127 9.3944
0026 1420282348 9.4528
0027 1420283569 9.3247
0028 1420284790 9.4014
0029 1420286010 9.4189
0030 1420287231 9.4840
0031 1420288452 9.5441
0032 1420289672 9.5835
0033 1420290893 9.5986
0034 1420292114 9.6468
0035 1420293334 9.8120
0036 1420294555 9.7753
0037 1420295776 9.8474
0038 1420296997 9.8958
0039 1420298217 9.8533
0040 1420299438 10.0981
0041 1420300659 10.4495
0042 1420301879 10.1065
0043 1420303100 10.0895
0044 1420304321 10.1590
0045 1420305541 10.1963
0046 1420306762 10.2925
0047 1420307983 10.2400
0048 1420309204 10.3166
0049 1420310424 10.2928
0050 1420311645 10.2826
0051 1420312866 10.6598
0052 1420314086 10.5409
0053 1420315307 10.6808
0054 1420316528 10.6166
0055 1420317749 10.7182
0056 1420318969 10.7861
0057 1420320190 10.8720
0058 1420321411 11.0030
0059 1420322631 10.9625
0060 1420323852 10.8774
0061 1420325073 11.1338
0062 1420326293 11.1528
0063 1420327514 11.2529
0064 1420328735 11.1909
0065 1420329956 11.4109
0066 1420331176 11.3988
0067 1420332397 11.3235
0068 1420333618 11.5172
0069 1420334838 11.7194
0070 1420336059 11.7644
0071 1420337280 11.7679
0072 1420338500 11.8085
0073 1420339721 11.9702
0074 1420340942 11.9803
0075 1420342163 12.1232
0076 1420343383 12.0722
0077 1420344604 12.1375
0078 1420345825 12.1776
0079 1420347045 12.2576
0080 1420348266 12.3551
0081 1420349487 12.3180
0082 1420350708 12.3436
0083 1420351928 12.4807
0084 1420353149 12.8098
0085 1420354370 12.7961
0086 1420355590 12.7439
0087 1420356811 12.7730
0088 1420358032 12.9011
0089 1420359252 13.1633
0090 1420360473 13.0341
0091 1420361694 13.0525
0092 1420362915 13.0687
0093 1420364135 13.2864
0094 1420365356 13.3129
0095 1420366577 13.5758
0096 1420367797 13.4661
0097 1420369018 13.7015
0098 1420370239 13.4792
0099 1420371459 13.6949
0100 1420372680 14.0990
0101 1420373901 13.8222
0102 1420375122 13.8866
0103 1420376342 14.0720
0104 1420377563 14.2295
0105 1420378784 14.2125
0106 1420380004 14.3661
0107 1420381225 14.3286
0108 1420382446 14.5019
0109 1420383666 14.5968
0110 1420384887 14.7881
0111 1420386108 14.7895
0112 1420387329 15.1521
0113 1420388549 15.1143
0114 1420389770 15.1190
0115 1420390991 15.3499
0116 1420392211 15.3815
0117 1420393432 15.3394
0118 1420394653 15.4581
0119 1420395874 15.5521
0120 1420397094 15.6935
0121 1420398315 15.9070
0122 1420399536 15.6776
0123 1420400756 16.0222
0124 1420401977 16.0946
0125 1420403198 16.2064
0126 1420404418 16.0588
0127 1420405639 16.3687
0128 1420406860 16.4537
0129 1420408081 16.4885
0130 1420409301 16.6559
0131 1420410522 16.8380
0132 1420411743 16.8273
0133 1420412963 16.7976
0134 1420414184 16.9233
0135 1420415405 17.1505
0136 1420416625 17.6048
0137 1420417846 17.4511
0138 1420419067 17.3225
0139 1420420288 17.5801
0140 1420421508 17.8539
0141 1420422729 17.7836
0142 1420423950 18.1172
0143 1420425170 18.2294
0144 1420426391 17.9396
0145 1420427612 18.1495
0146 1420428833 18.3694
0147 1420430053 18.5343
0148 1420431274 18.4158
0149 1420432495 18.9418
0150 1420433715 18.9977
0151 1420434936 19.0659
0152 1420436157 19.0357
0153 1420437377 19.1109
0154 1420438598 19.3158
0155 1420439819 19.2403
0156 1420441040 19.4229
0157 1420442260 19.5477
0158 1420443481 19.4025
0159 1420444702 20.2462
0160 1420445922 19.7445
0161 1420447143 19.9518
0162 1420448364 20.4392
0163 1420449584 20.2873
0164 1420450805 20.4101
0165 1420452026 20.7100
0166 1420453247 20.3138
0167 1420454467 20.5873
0168 1420455688 20.9365
0169 1420456909 21.0234
0170 1420458129 21.2750
0171 1420459350 21.0516
0172 1420460571 21.3552
0173 1420461791 21.0998
0174 1420463012 21.2265
0175 1420464233 21.7868
0176 1420465454 21.5811
0177 1420466674 21.6797
0178 1420467895 21.7387
0179 1420469116 22.0289
0180 1420470336 22.3850
0181 1420471557 21.9070
0182 1420472778 22.3886
0183 1420473999 22.4772
0184 1420475219 22.9487
0185 1420476440 22.9634
0186 1420477661 23.0381
0187 1420478881 23.0093
0188 1420480102 23.0302
0189 1420481323 23.4058
0190 1420482543 23.5127
0191 1420483764 23.4793
0192 1420484985 23.4902
0193 1420486206 23.5286
0194 1420487426 23.8477
0195 1420488647 24.0349
0196 1420489868 24.0182
0197 1420491088 24.0858
0198 1420492309 24.1616
0199 1420493530 24.3443
0200 1420494750 24.5647
0201 1420495971 25.0242
0202 1420497192 24.9739
0203 1420498413 25.3999
0204 1420499633 26.0820
0205 1420500854 24.9425
0206 1420502075 25.3770
0207 1420503295 25.4100
0208 1420504516 25.5096
0209 1420505737 25.6114
0210 1420506958 26.0008
0211 1420508178 25.8905
0212 1420509399 26.0583
0213 1420510620 25.9790
0214 1420511840 26.0294
0215 1420513061 26.0363
0216 1420514282 26.6504
0217 1420515502 26.7023
0218 1420516723 26.5201
0219 1420517944 26.5672
0220 1420519165 26.6878
0221 1420520385 26.6820
0222 1420521606 27.3858
0223 1420522827 27.1122
0224 1420524047 27.6816
0225 1420525268 27.4186
0226 1420526489 27.5217
0227 1420527709 27.7877
0228 1420528930 27.2356
0229 1420530151 27.7537
0230 1420531372 27.5948
0231 1420532592 27.9879
0232 1420533813 28.1056
0233 1420535034 28.2901
0234 1420536254 28.4024
0235 1420537475 28.3776
0236 1420538696 28.9345
0237 1420539916 28.7983
0238 1420541137 28.9705
0239 1420542358 28.4741
0240 1420543579 29.0369
0241 1420544799 29.3735
0242 1420546020 28.7887
0243 1420547241 29.5922
0244 1420548461 29.4147
0245 1420549682 29.5475
0246 1420550903 29.6796
0247 1420552124 29.8564
0248 1420553344 29.5451
0249 1420554565 30.0064
0250 1420555786 29.9667
0251 1420557006 30.0692
0252 1420558227 30.2802
0253 1420559448 30.0716
0254 1420560668 30.6731
0255 1420561889 30.6806
0256 1420563110 31.0064
0257 1420564331 30.3587
0258 1420565551 30.7429
0259 1420566772 30.8675
0260 1420567993 30.9716
0261 1420569213 31.1918
0262 1420570434 31.1228
0263 1420571655 31.1063
0264 1420572875 31.7294
0265 1420574096 31.6632
0266 1420575317 31.2918
0267 1420576538 31.7747
0268 1420577758 31.9879
0269 1420578979 32.1805
0270 1420580200 32.0556
0271 1420581420 32.6017
0272 1420582641 32.4827
0273 1420583862 32.3983
0274 1420585083 32.8056
0275 1420586303 32.2475
0276 1420587524 32.8052
0277 1420588745 32.9210
0278 1420589965 33.4554
0279 1420591186 32.9630
0280 1420592407 33.0025
0281 1420593627 33.6510
0282 1420594848 33.4875
0283 1420596069 33.7671
0284 1420597290 33.2763
0285 1420598510 33.2425
0286 1420599731 34.0085
0287 1420600952 34.1494
0288 1420602172 33.9899
0289 1420603393 33.5076
0290 1420604614 34.1332
0291 1420605834 34.0435
0292 1420607055 34.5626
0293 1420608276 34.0040
0294 1420609497 34.4482
0295 1420610717 34.5010
0296 1420611938 34.3598
0297 1420613159 34.6894
0298 1420614379 34.8757
0299 1420615600 34.9833
0300 1420616821 35.2836
0301 1420618041 35.1716
0302 1420619262 35.4146
0303 1420620483 35.2539
0304 1420621704 35.0255
0305 1420622924 35.3159
0306 1420624145 35.2764
0307 1420625366 35.2484
0308 1420626586 35.5211
0309 1420627807 35.9408
0310 1420629028 35.8524
0311 1420630249 35.6223
0312 1420631469 35.7250
0313 1420632690 35.5953
0314 1420633911 36.2172
0315 1420635131 38.3224
0316 1420636352 36.4098
0317 1420637573 36.4777
0318 1420638793 37.1001
0319 1420640014 36.5931
0320 1420641235 36.8102
0321 1420642456 36.8966
0322 1420643676 37.1707
0323 1420644897 37.0417
0324 1420646118 37.1330
0325 1420647338 36.9781
0326 1420648559 36.7859
0327 1420649780 36.8874
0328 1420651000 36.8137
0329 1420652221 36.7956
0330 1420653442 36.8728
0331 1420654663 37.8250
0332 1420655883 37.2894
0333 1420657104 37.5852
0334 1420658325 37.6903
0335 1420659545 37.6340
0336 1420660766 37.5132
0337 1420661987 37.6548
0338 1420663208 37.3415
0339 1420664428 38.1651
0340 1420665649 37.7823
0341 1420666870 37.6716
0342 1420668090 38.0107
0343 1420669311 38.2898
0344 1420670532 38.7201
0345 1420671752 38.1799
0346 1420672973 38.2786
0347 1420674194 38.7335
0348 1420675415 37.9355
0349 1420676635 38.7369
0350 1420677856 38.6556
0351 1420679077 39.4025
0352 1420680297 38.1265
0353 1420681518 39.2893
0354 1420682739 38.0947
0355 1420683959 38.8394
0356 1420685180 38.8425
0357 1420686401 38.5672
0358 1420687622 39.0251
0359 1420688842 38.9266
0360 1420690063 39.3656
0361 1420691284 38.9007
0362 1420692504 39.0469
0363 1420693725 39.6248
0364 1420694946 39.4072
0365 1420696166 39.4272
0366 1420697387 39.6741
0367 1420698608 39.5170
0368 1420699829 39.1849
0369 1420701049 39.5437
0370 1420702270 39.5148
0371 1420703491 39.0597
0372 1420704711 40.0292
0373 1420705932 39.5346
0374 1420707153 39.5288
0375 1420708374 40.1341
0376 1420709594 39.7517
0377 1420710815 39.7088
0378 1420712036 40.3035
0379 1420713256 39.9533
0380 1420714477 39.8412
0381 1420715698 39.6178
0382 1420716918 40.1399
0383 1420718139 40.3689
0384 1420719360 39.8320
0385 1420720581 40.4629
0386 1420721801 39.7915
0387 1420723022 40.0297
0388 1420724243 40.6405
0389 1420725463 40.1321
0390 1420726684 40.2071
0391 1420727905 40.5722
0392 1420729125 40.0724
0393 1420730346 40.4949
0394 1420731567 39.9020
0395 1420732788 40.1481
0396 1420734008 39.9878
0397 1420735229 40.7983
0398 1420736450 40.8780
0399 1420737670 40.4692
0400 1420738891 40.6689
0401 1420740112 40.8317
0402 1420741333 40.4682
0403 1420742553 40.8739
0404 1420743774 40.4713
0405 1420744995 40.6653
0406 1420746215 40.4403
0407 1420747436 40.8291
0408 1420748657 40.7584
0409 1420749877 41.0242
0410 1420751098 40.6310
0411 1420752319 40.0613
0412 1420753540 41.2999
0413 1420754760 41.0634
0414 1420755981 41.2211
0415 1420757202 41.3381
0416 1420758422 41.3533
0417 1420759643 40.8709
0418 1420760864 41.0286
0419 1420762084 40.9782
0420 1420763305 40.7953
0421 1420764526 41.1251
0422 1420765747 41.0671
0423 1420766967 40.6495
0424 1420768188 40.7913
0425 1420769409 41.5986
0426 1420770629 41.7305
0427 1420771850 41.3249
0428 1420773071 41.0778
0429 1420774291 41.4405
0430 1420775512 41.0946
0431 1420776733 40.8311
0432 1420777954 40.8319
0433 1420779174 41.2086
0434 1420780395 41.4268
0435 1420781616 40.9851
0436 1420782836 42.0088
0437 1420784057 41.6751
0438 1420785278 40.7276
0439 1420786499 41.3009
0440 1420787719 41.6948
0441 1420788940 41.9153
0442 1420790161 40.9602
0443 1420791381 41.0059
0444 1420792602 41.1294
0445 1420793823 41.6166
0446 1420795043 41.8670
0447 1420796264 42.1308
0448 1420797485 41.1385
0449 1420798706 41.3347
0450 1420799926 43.9336
0451 1420801147 45.0882
0452 1420802368 41.6358
0453 1420803588 41.5947
0454 1420804809 41.8566
0455 1420806030 41.4486
0456 1420807250 41.6226
0457 1420808471 41.5597
0458 1420809692 41.8910
0459 1420810913 41.8427
0460 1420812133 41.4562
0461 1420813354 41.1796
0462 1420814575 41.4515
0463 1420815795 41.7273
0464 1420817016 41.6546
0465 1420818237 41.5018
0466 1420819458 41.8299
0467 1420820678 41.3751
0468 1420821899 42.4418
0469 1420823120 41.8147
0470 1420824340 41.7361
0471 1420825561 41.4966
0472 1420826782 41.5415
0473 1420828002 41.1473
0474 1420829223 41.4728
0475 1420830444 41.2153
0476 1420831665 41.5362
0477 1420832885 41.7703
0478 1420834106 41.5256
0479 1420835327 41.1583
0480 1420836547 41.2613
0481 1420837768 41.8421
0482 1420838989 41.1145
0483 1420840209 41.2271
0484 1420841430 41.0168
0485 1420842651 41.3893
0486 1420843872 41.4887
0487 1420845092 42.1593
0488 1420846313 41.5039
0489 1420847534 41.5338
0490 1420848754 41.7112
0491 1420849975 41.5294
0492 1420851196 41.4979
0493 1420852416 41.7166
0494 1420853637 42.2508
0495 1420854858 41.5937
0496 1420856079 41.4452
0497 1420857299 41.5464
0498 1420858520 42.3668
0499 1420859741 41.9931
0500 1420860961 41.6427
0501 1420862182 41.4799
0502 1420863403 42.2677
0503 1420864624 42.1196
0504 1420865844 41.3927
0505 1420867065 41.4639
0506 1420868286 41.5238
0507 1420869506 41.9230
0508 1420870727 41.3262
0509 1420871948 41.3198
0510 1420873168 41.1593
0511 1420874389 41.2846
0512 1420875610 40.9506
0513 1420876831 41.5584
0514 1420878051 41.7151
0515 1420879272 41.3179
0516 1420880493 40.7100
0517 1420881713 40.8381
0518 1420882934 41.6646
0519 1420884155 42.0789
0520 1420885375 41.3023
0521 1420886596 41.2288
0522 1420887817 41.3825
0523 1420889038 42.1347
0524 1420890258 41.6528
0525 1420891479 41.6203
0526 1420892700 41.6690
0527 1420893920 41.5126
0528 1420895141 41.4490
0529 1420896362 41.4395
0530 1420897583 41.0714
0531 1420898803 41.4942
0532 1420900024 41.2279
0533 1420901245 40.9442
0534 1420902465 41.4715
0535 1420903686 41.4400
0536 1420904907 41.4491
0537 1420906127 41.6709
0538 1420907348 41.2166
0539 1420908569 41.5740
0540 1420909790 41.2460
0541 1420911010 40.7662
0542 1420912231 41.2800
0543 1420913452 41.1495
0544 1420914672 41.2523
0545 1420915893 40.3294
0546 1420917114 40.6140
0547 1420918334 41.6690
0548 1420919555 41.4504
0549 1420920776 41.7476
0550 1420921997 41.2803
0551 1420923217 41.4205
0552 1420924438 41.5809
0553 1420925659 40.9790
0554 1420926879 41.2762
0555 1420928100 41.2741
0556 1420929321 41.2590
0557 1420930541 41.3844
0558 1420931762 41.8325
0559 1420932983 41.3509
0560 1420934204 41.1318
0561 1420935424 41.1143
0562 1420936645 41.3951
0563 1420937866 40.7284
0564 1420939086 41.3426
0565 1420940307 41.4187
0566 1420941528 41.0745
0567 1420942749 41.5084
0568 1420943969 41.4490
0569 1420945190 41.7229
0570 1420946411 40.9708
0571 1420947631 40.9492
0572 1420948852 40.9606
0573 1420950073 41.2045
0574 1420951293 41.0043
0575 1420952514 41.4861
0576 1420953735 41.9457
0577 1420954956 41.5887
0578 1420956176 41.0699
0579 1420957397 41.4370
0580 1420958618 41.3975
0581 1420959838 41.6340
0582 1420961059 40.9041
0583 1420962280 40.9340
0584 1420963500 40.9994
0585 1420964721 41.1678
0586 1420965942 41.2514
0587 1420967163 40.4696
0588 1420968383 41.1842
0589 1420969604 41.3264
0590 1420970825 41.0692
0591 1420972045 41.1833
0592 1420973266 41.0611
0593 1420974487 41.5062
0594 1420975708 41.0418
0595 1420976928 41.5208
0596 1420978149 40.6747
0597 1420979370 41.4891
0598 1420980590 41.2428
0599 1420981811 41.2875
0600 1420983032 41.2983
0601 1420984252 41.1429
0602 1420985473 41.0107
0603 1420986694 41.3336
0604 1420987915 41.1376
0605 1420989135 40.9091
0606 1420990356 41.4362
0607 1420991577 41.3976
0608 1420992797 40.7750
0609 1420994018 41.0872
0610 1420995239 41.0368
0611 1420996459 41.1712
0612 1420997680 41.4872
0613 1420998901 41.1138
0614 1421000122 41.6167
0615 1421001342 40.9797
0616 1421002563 40.3038
0617 1421003784 40.8284
0618 1421005004 41.6000
0619 1421006225 41.3120
0620 1421007446 41.2119
0621 1421008666 41.3348
0622 1421009887 41.1505
0623 1421011108 41.0325
0624 1421012329 41.1127
0625 1421013549 41.5891
0626 1421014770 41.1148
0627 1421015991 41.4895
0628 1421017211 41.5512
0629 1421018432 40.8039
0630 1421019653 40.6073
0631 1421020874 40.6992
0632 1421022094 41.3303
0633 1421023315 40.8787
0634 1421024536 40.3241
0635 1421025756 40.7706
0636 1421026977 40.7593
0637 1421028198 40.7457
0638 1421029418 40.8168
0639 1421030639 41.1681
0640 1421031860 41.3223
0641 1421033081 41.3282
0642 1421034301 41.1340
0643 1421035522 41.1550
0644 1421036743 40.9571
0645 1421037963 40.3768
0646 1421039184 40.8942
0647 1421040405 40.8619
0648 1421041625 40.5327
0649 1421042846 41.3830
0650 1421044067 41.0577
0651 1421045288 41.0839
0652 1421046508 40.9539
0653 1421047729 41.2023
0654 1421048950 41.0832
0655 1421050170 41.0666
0656 1421051391 41.4577
0657 1421052612 40.8361
0658 1421053833 41.4978
0659 1421055053 40.8155
0660 1421056274 41.1118
0661 1421057495 41.0000
0662 1421058715 41.2385
0663 1421059936 41.2800
0664 1421061157 41.1466
0665 1421062377 40.9144
0666 1421063598 41.2566
0667 1421064819 41.0477
0668 1421066040 41.4884
0669 1421067260 41.6847
0670 1421068481 41.3450
0671 1421069702 41.0432
0672 1421070922 41.1216
0673 1421072143 41.3398
0674 1421073364 41.2007
0675 1421074584 41.1992
0676 1421075805 41.5804
0677 1421077026 41.5192
0678 1421078247 41.6234
0679 1421079467 41.2448
0680 1421080688 41.5687
0681 1421081909 40.9219
0682 1421083129 41.1244
0683 1421084350 41.2690
0684 1421085571 41.7719
0685 1421086791 41.8444
0686 1421088012 42.0393
0687 1421089233 41.5747
0688 1421090454 40.8637
0689 1421091674 41.6209
0690 1421092895 41.4105
0691 1421094116 41.5864
0692 1421095336 41.2588
0693 1421096557 41.5551
0694 1421097778 41.4895
0695 1421098999 41.6760
0696 1421100219 41.8784
0697 1421101440 41.4403
0698 1421102661 41.4080
0699 1421103881 41.7482
0700 1421105102 41.6485
0701 1421106323 41.5427
0702 1421107543 41.8213
0703 1421108764 42.0976
0704 1421109985 42.2321
0705 1421111206 42.3108
0706 1421112426 41.7328
0707 1421113647 41.7134
0708 1421114868 41.8473
0709 1421116088 41.8892
0710 1421117309 42.2741
0711 1421118530 42.2522
0712 1421119750 42.4355
0713 1421120971 42.4389
0714 1421122192 41.9125
0715 1421123413 42.1049
0716 1421124633 41.6775
0717 1421125854 42.2929
0718 1421127075 42.0228
0719 1421128295 42.2791
0720 1421129516 42.2955
0721 1421130737 42.1256
0722 1421131958 41.8719
0723 1421133178 41.8502
0724 1421134399 42.7837
0725 1421135620 42.9687
0726 1421136840 42.3595
0727 1421138061 42.2519
0728 1421139282 42.4627
0729 1421140502 42.6522
0730 1421141723 42.1349
0731 1421142944 42.6494
0732 1421144165 42.8087
0733 1421145385 42.6429
0734 1421146606 42.9611
0735 1421147827 42.3135
0736 1421149047 42.8728
0737 1421150268 42.7583
0738 1421151489 42.7951
0739 1421152709 42.6685
0740 1421153930 42.4832
0741 1421155151 42.4345
0742 1421156372 42.5665
0743 1421157592 42.2229
0744 1421158813 42.8576
0745 1421160034 43.1805
0746 1421161254 42.5980
0747 1421162475 42.7504
0748 1421163696 42.9443
0749 1421164916 42.2659
0750 1421166137 42.4207
0751 1421167358 42.8631
0752 1421168579 43.2255
0753 1421169799 42.8359
0754 1421171020 42.9468
0755 1421172241 43.7506
0756 1421173461 42.5369
0757 1421174682 43.4067
0758 1421175903 43.2286
0759 1421177124 43.0570
0760 1421178344 43.3082
0761 1421179565 43.2613
0762 1421180786 43.2300
0763 1421182006 43.1044
0764 1421183227 43.2916
0765 1421184448 43.5157
0766 1421185668 43.3951
0767 1421186889 42.8920
0768 1421188110 43.1123
0769 1421189331 43.9167
0770 1421190551 43.9582
0771 1421191772 43.2663
0772 1421192993 43.1220
0773 1421194213 43.9094
0774 1421195434 43.7528
0775 1421196655 43.6388
0776 1421197875 43.1804
0777 1421199096 43.2695
0778 1421200317 43.6681
0779 1421201538 43.9557
0780 1421202758 44.4647
0781 1421203979 44.1753
0782 1421205200 43.8945
0783 1421206420 44.0349
0784 1421207641 43.9286
0785 1421208862 43.7266
0786 1421210083 44.0677
0787 1421211303 43.9076
0788 1421212524 44.5101
0789 1421213745 44.6505
0790 1421214965 44.6876
0791 1421216186 43.5376
0792 1421217407 44.6339
0793 1421218627 44.8332
0794 1421219848 44.1755
0795 1421221069 44.3369
0796 1421222290 44.2271
0797 1421223510 44.4833
0798 1421224731 44.3885
0799 1421225952 44.9917
0800 1421227172 44.7352
0801 1421228393 44.5339
0802 1421229614 44.3795
0803 1421230834 44.8969
0804 1421232055 44.5640
0805 1421233276 44.6392
0806 1421234497 44.8609
0807 1421235717 44.6381
0808 1421236938 45.0047
0809 1421238159 45.2068
0810 1421239379 45.1968
0811 1421240600 45.0680
0812 1421241821 45.0114
0813 1421243041 45.3678
0814 1421244262 46.0054
0815 1421245483 45.4157
0816 1421246704 45.3487
0817 1421247924 45.1725
0818 1421249145 45.1812
0819 1421250366 44.6739
0820 1421251586 45.1696
0821 1421252807 45.4570
0822 1421254028 45.4946
0823 1421255249 45.6816
0824 1421256469 45.7071
0825 1421257690 45.6922
0826 1421258911 45.4981
0827 1421260131 45.2465
0828 1421261352 45.4096
0829 1421262573 45.8378
0830 1421263793 45.8569
0831 1421265014 45.6181
0832 1421266235 46.2581
0833 1421267456 45.8240
0834 1421268676 46.3958
0835 1421269897 46.1531
0836 1421271118 46.2818
0837 1421272338 46.4001
0838 1421273559 46.8446
0839 1421274780 46.5273
0840 1421276000 46.4566
0841 1421277221 46.5963
0842 1421278442 46.7821
0843 1421279663 46.4355
0844 1421280883 45.4067
0845 1421282104 46.6105
0846 1421283325 47.0246
0847 1421284545 46.7133
0848 1421285766 46.3736
0849 1421286987 46.3100
0850 1421288208 46.5535
0851 1421289428 46.4678
0852 1421290649 46.8346
0853 1421291870 46.3397
0854 1421293090 46.6486
0855 1421294311 47.0032
0856 1421295532 46.7884
0857 1421296752 47.3675
0858 1421297973 46.8100
0859 1421299194 47.3180
0860 1421300415 47.3134
0861 1421301635 46.4572
0862 1421302856 46.7302
0863 1421304077 47.2522
0864 1421305297 47.7617
0865 1421306518 47.4082
0866 1421307739 48.1855
0867 1421308959 46.6229
0868 1421310180 46.1978
0869 1421311401 47.5855
0870 1421312622 47.4035
0871 1421313842 47.5258
0872 1421315063 47.3389
0873 1421316284 47.6739
0874 1421317504 47.5630
0875 1421318725 47.7355
0876 1421319946 46.9087
0877 1421321166 47.6475
0878 1421322387 48.4219
0879 1421323608 47.9158
0880 1421324829 48.5700
0881 1421326049 47.1854
0882 1421327270 48.3178
0883 1421328491 48.0084
0884 1421329711 48.1871
0885 1421330932 47.5095
0886 1421332153 47.7614
0887 1421333374 47.3860
0888 1421334594 47.9986
0889 1421335815 48.1546
0890 1421337036 49.3754
0891 1421338256 48.3865
0892 1421339477 48.0060
0893 1421340698 47.6654
0894 1421341918 48.2853
0895 1421343139 47.7362
0896 1421344360 47.9999
0897 1421345581 47.8980
0898 1421346801 47.6877
0899 1421348022 49.0349
0900 1421349243 48.4327
0901 1421350463 49.1209
0902 1421351684 48.9570
0903 1421352905 49.1865
0904 1421354125 49.3935
0905 1421355346 49.3242
0906 1421356567 48.2476
0907 1421357788 49.1014
0908 1421359008 49.2207
0909 1421360229 49.1653
0910 1421361450 48.7753
0911 1421362670 48.6757
0912 1421363891 49.5746
0913 1421365112 49.3412
0914 1421366333 48.9779
0915 1421367553 49.3710
0916 1421368774 49.3323
0917 1421369995 48.8451
0918 1421371215 49.2543
0919 1421372436 48.1206
0920 1421373657 48.8137
0921 1421374877 49.6762
0922 1421376098 49.3289
0923 1421377319 49.8991
0924 1421378540 49.2537
0925 1421379760 48.9404
0926 1421380981 49.6050
0927 1421382202 49.9355
0928 1421383422 49.9068
0929 1421384643 49.9257
0930 1421385864 49.8522
0931 1421387084 49.5141
0932 1421388305 49.7156
0933 1421389526 49.4991
0934 1421390747 49.7224
0935 1421391967 49.7177
0936 1421393188 49.9679
0937 1421394409 49.6544
0938 1421395629 49.8361
0939 1421396850 50.0616
0940 1421398071 50.0511
0941 1421399291 50.1764
0942 1421400512 50.3117
0943 1421401733 50.0313
0944 1421402954 49.6152
0945 1421404174 50.4746
0946 1421405395 49.9146
0947 1421406616 50.5056
0948 1421407836 49.7297
0949 1421409057 49.8393
0950 1421410278 50.4248
0951 1421411499 50.4300
0952 1421412719 49.9524
0953 1421413940 50.5827
0954 1421415161 50.0253
0955 1421416381 50.8916
0956 1421417602 50.4114
0957 1421418823 51.1847
0958 1421420043 50.0163
0959 1421421264 50.5061
0960 1421422485 50.0736
0961 1421423706 50.8020
0962 1421424926 51.0082
0963 1421426147 50.7750
0964 1421427368 51.3765
0965 1421428588 51.0921
0966 1421429809 50.6923
0967 1421431030 51.1067
0968 1421432250 50.6200
0969 1421433471 50.8326
0970 1421434692 50.5274
0971 1421435913 50.5187
0972 1421437133 51.1203
0973 1421438354 50.9017
0974 1421439575 50.8614
0975 1421440795 50.8959
0976 1421442016 51.1863
0977 1421443237 50.6116
0978 1421444458 50.8758
0979 1421445678 50.8451
0980 1421446899 51.2518
0981 1421448120 50.6547
0982 1421449340 51.2976
0983 1421450561 51.6983
0984 1421451782 51.7871
0985 1421453002 51.1682
0986 1421454223 50.6066
0987 1421455444 51.3195
0988 1421456665 51.3582
0989 1421457885 51.0688
0990 1421459106 51.4556
0991 1421460327 50.8376
0992 1421461547 51.1740
0993 1421462768 51.0538
0994 1421463989 51.8009
0995 1421465209 51.6980
0996 1421466430 51.0718
0997 1421467651 51.5625
0998 1421468872 51.3669
0999 1421470092 51.3897
1000 1421471313 52.6063
1001 1421472534 51.9266
1002 1421473754 51.4754
1003 1421474975 52.0549
1004 1421476196 52.0844
1005 1421477416 51.7467
1006 1421478637 51.4795
1007 1421479858 52.1551
1008 1421481079 51.7527
1009 1421482299 52.3910
1010 1421483520 52.1207
1011 1421484741 52.2300
1012 1421485961 51.7670
1013 1421487182 52.7337
1014 1421488403 52.4424
1015 1421489624 52.9825
1016 1421490844 52.7523
1017 1421492065 53.6422
1018 1421493286 53.2503
1019 1421494506 54.2279
1020 1421495727 54.8948
1021 1421496948 55.7688
1022 1421498168 56.6132
1023 1421499389 53.8573
1024 1421500610 46.6232
1025 1421501831 54.2032
1026 1421503051 56.7859
1027 1421504272 56.1962
1028 1421505493 54.5920
1029 1421506713 54.0771
1030 1421507934 53.3510
1031 1421509155 53.2668
1032 1421510375 52.8196
1033 1421511596 52.1959
1034 1421512817 52.2852
1035 1421514038 52.3809
1036 1421515258 52.0170
1037 1421516479 52.7851
1038 1421517700 51.8259
1039 1421518920 52.4694
1040 1421520141 51.5587
1041 1421521362 52.2721
1042 1421522583 51.1492
1043 1421523803 52.0879
1044 1421525024 52.0805
1045 1421526245 52.1216
1046 1421527465 52.0534
1047 1421528686 51.8328
1048 1421529907 52.1055
1049 1421531127 51.3934
1050 1421532348 51.4029
1051 1421533569 52.6733
1052 1421534790 52.0358
1053 1421536010 51.5545
1054 1421537231 52.4778
1055 1421538452 51.8333
1056 1421539672 52.2762
1057 1421540893 51.6670
1058 1421542114 51.5788
1059 1421543334 51.3080
1060 1421544555 50.7246
1061 1421545776 51.2614
1062 1421546997 51.8826
1063 1421548217 51.0202
1064 1421549438 51.5365
1065 1421550659 50.6829
1066 1421551879 51.0329
1067 1421553100 50.6420
1068 1421554321 50.6464
1069 1421555541 51.2038
1070 1421556762 51.3489
1071 1421557983 51.2643
1072 1421559204 51.2302
1073 1421560424 51.6275
1074 1421561645 50.5774
1075 1421562866 50.8414
1076 1421564086 50.5808
1077 1421565307 50.6253
1078 1421566528 50.6129
1079 1421567749 50.4932
1080 1421568969 51.1421
1081 1421570190 50.0403
1082 1421571411 50.8834
1083 1421572631 50.7724
1084 1421573852 50.9853
1085 1421575073 51.0793
1086 1421576293 50.6454
1087 1421577514 50.6983
1088 1421578735 50.8988
1089 1421579956 51.1437
1090 1421581176 51.1381
1091 1421582397 51.5073
1092 1421583618 50.9932
1093 1421584838 50.2270
1094 1421586059 51.0544
1095 1421587280 50.7580
1096 1421588500 50.7581
1097 1421589721 51.1612
1098 1421590942 50.6226
1099 1421592163 50.4581
1100 1421593383 50.7436
1101 1421594604 50.2849
1102 1421595825 50.2525
1103 1421597045 49.8892
1104 1421598266 50.2325
1105 1421599487 49.8489
1106 1421600708 49.8838
1107 1421601928 49.9555
1108 1421603149 50.5198
1109 1421604370 50.3325
1110 1421605590 50.6172
1111 1421606811 50.8195
1112 1421608032 50.2566
1113 1421609252 49.6498
1114 1421610473 49.4005
1115 1421611694 49.9900
1116 1421612915 49.5852
1117 1421614135 49.8166
1118 1421615356 49.4273
1119 1421616577 49.7695
1120 1421617797 50.0322
1121 1421619018 50.0296
1122 1421620239 49.8457
1123 1421621459 49.8449
1124 1421622680 49.7972
1125 1421623901 49.5240
1126 1421625122 49.6077
1127 1421626342 49.4349
1128 1421627563 49.8999
1129 1421628784 50.3584
1130 1421630004 49.0847
1131 1421631225 49.6637
1132 1421632446 49.3913
1133 1421633666 49.2511
1134 1421634887 49.1024
1135 1421636108 49.9581
1136 1421637329 49.0083
1137 1421638549 49.2020
1138 1421639770 48.9687
1139 1421640991 49.5419
1140 1421642211 49.0371
1141 1421643432 49.2104
1142 1421644653 48.8164
1143 1421645874 48.4640
1144 1421647094 49.6320
1145 1421648315 49.7605
1146 1421649536 49.2631
1147 1421650756 48.9131
1148 1421651977 49.2184
1149 1421653198 49.0704
1150 1421654418 48.9637
1151 1421655639 48.8060
1152 1421656860 48.7953
1153 1421658081 48.8312
1154 1421659301 48.5185
1155 1421660522 48.9953
1156 1421661743 49.3654
1157 1421662963 49.1471
1158 1421664184 49.2356
1159 1421665405 48.3521
1160 1421666625 48.3196
1161 1421667846 48.1184
1162 1421669067 48.0897
1163 1421670288 47.8091
1164 1421671508 48.0954
1165 1421672729 48.1485
1166 1421673950 47.5455
1167 1421675170 48.6244
1168 1421676391 48.3541
1169 1421677612 48.2126
1170 1421678833 48.7986
1171 1421680053 48.3396
1172 1421681274 49.2047
1173 1421682495 48.3247
1174 1421683715 48.4514
1175 1421684936 48.4328
1176 1421686157 48.6648
1177 1421687377 48.2838
1178 1421688598 48.5325
1179 1421689819 48.2172
1180 1421691040 47.4367
1181 1421692260 48.0703
1182 1421693481 48.0389
1183 1421694702 47.7247
1184 1421695922 48.1795
1185 1421697143 47.5976
1186 1421698364 48.0965
1187 1421699584 47.2579
1188 1421700805 47.1619
1189 1421702026 48.4032
1190 1421703247 47.3208
1191 1421704467 47.3734
1192 1421705688 47.4037
1193 1421706909 47.1079
1194 1421708129 47.7754
1195 1421709350 47.4643
1196 1421710571 47.2043
1197 1421711791 47.0833
1198 1421713012 48.0907
1199 1421714233 47.6863
1200 1421715454 47.4189
1201 1421716674 47.6779
1202 1421717895 46.8707
1203 1421719116 46.6925
1204 1421720336 47.0304
1205 1421721557 46.7983
1206 1421722778 46.9406
1207 1421723999 47.2386
1208 1421725219 47.5364
1209 1421726440 47.3418
1210 1421727661 47.1740
1211 1421728881 46.7769
1212 1421730102 46.7751
1213 1421731323 46.9501
1214 1421732543 46.8371
1215 1421733764 45.8590
1216 1421734985 46.0586
1217 1421736206 46.7972
1218 1421737426 46.6672
1219 1421738647 46.9335
1220 1421739868 46.5407
1221 1421741088 45.9544
1222 1421742309 46.5200
1223 1421743530 46.2891
1224 1421744750 46.0041
1225 1421745971 46.0560
1226 1421747192 46.5442
1227 1421748413 45.9639
1228 1421749633 45.8458
1229 1421750854 46.1859
1230 1421752075 46.1601
1231 1421753295 45.6559
1232 1421754516 46.2090
1233 1421755737 46.6702
1234 1421756958 46.0689
1235 1421758178 45.8014
1236 1421759399 45.7543
1237 1421760620 45.9610
1238 1421761840 45.6236
1239 1421763061 45.4464
1240 1421764282 45.5690
1241 1421765502 45.5195
1242 1421766723 45.3021
1243 1421767944 45.4207
1244 1421769165 45.6061
1245 1421770385 45.6035
1246 1421771606 44.6424
1247 1421772827 45.0607
1248 1421774047 45.6193
1249 1421775268 45.4763
1250 1421776489 46.0315
1251 1421777709 45.3432
1252 1421778930 45.6104
1253 1421780151 44.6765
1254 1421781372 45.2728
1255 1421782592 45.3432
1256 1421783813 45.0093
1257 1421785034 45.1355
1258 1421786254 44.9828
1259 1421787475 45.1980
1260 1421788696 44.9270
1261 1421789916 44.0789
1262 1421791137 44.7062
1263 1421792358 45.1571
1264 1421793579 44.7164
1265 1421794799 44.8959
1266 1421796020 44.7528
1267 1421797241 44.7969
1268 1421798461 44.7810
1269 1421799682 45.1656
1270 1421800903 44.8807
1271 1421802124 44.8842
1272 1421803344 47.3229
1273 1421804565 45.7475
1274 1421805786 44.9495
1275 1421807006 44.7867
1276 1421808227 45.0477
1277 1421809448 44.5403
1278 1421810668 44.4045
1279 1421811889 44.0835
1280 1421813110 43.6890
1281 1421814331 43.9812
1282 1421815551 43.8672
1283 1421816772 44.2157
1284 1421817993 44.2546
1285 1421819213 43.9663
1286 1421820434 43.9685
1287 1421821655 43.6338
1288 1421822875 43.6634
1289 1421824096 43.8666
1290 1421825317 43.6450
1291 1421826538 43.6638
1292 1421827758 43.5121
1293 1421828979 43.6621
1294 1421830200 43.8863
1295 1421831420 43.7013
1296 1421832641 43.9415
1297 1421833862 44.6174
1298 1421835083 43.9970
1299 1421836303 43.9849
1300 1421837524 43.7236
1301 1421838745 43.5833
1302 1421839965 43.8057
1303 1421841186 44.0785
1304 1421842407 43.5264
1305 1421843627 43.1826
1306 1421844848 43.6117
1307 1421846069 44.0679
1308 1421847290 43.0697
1309 1421848510 43.7505
1310 1421849731 44.0229
1311 1421850952 44.3213
1312 1421852172 44.8636
1313 1421853393 45.3889
1314 1421854614 45.1678
1315 1421855834 45.0121
1316 1421857055 44.3649
1317 1421858276 43.4612
1318 1421859497 43.0442
1319 1421860717 43.4890
1320 1421861938 42.9586
1321 1421863159 42.9216
1322 1421864379 43.2545
1323 1421865600 43.0256
1324 1421866821 42.9853
1325 1421868041 43.0020
1326 1421869262 43.4381
1327 1421870483 43.1936
1328 1421871704 43.1062
1329 1421872924 43.0366
1330 1421874145 43.1384
1331 1421875366 42.8084
1332 1421876586 43.2122
1333 1421877807 42.9193
1334 1421879028 43.2310
1335 1421880249 42.5898
1336 1421881469 42.7570
1337 1421882690 43.4442
1338 1421883911 43.2836
1339 1421885131 43.1136
1340 1421886352 42.7121
1341 1421887573 42.8203
1342 1421888793 43.2398
1343 1421890014 42.6652
1344 1421891235 42.9493
1345 1421892456 42.6543
1346 1421893676 42.5349
1347 1421894897 42.7285
1348 1421896118 42.4595
1349 1421897338 43.0376
1350 1421898559 42.9084
1351 1421899780 42.6862
1352 1421901000 42.9299
1353 1421902221 42.8723
1354 1421903442 42.2154
1355 1421904663 42.6299
1356 1421905883 43.0597
1357 1421907104 42.7961
1358 1421908325 42.7315
1359 1421909545 43.0697
1360 1421910766 42.9210
1361 1421911987 43.1421
1362 1421913208 43.0043
1363 1421914428 42.6827
1364 1421915649 42.5829
1365 1421916870 42.9726
1366 1421918090 42.6952
1367 1421919311 42.6740
1368 1421920532 42.9579
1369 1421921752 42.1265
1370 1421922973 41.9606
1371 1421924194 41.9784
1372 1421925415 42.1060
1373 1421926635 42.3030
1374 1421927856 42.1737
1375 1421929077 42.6321
1376 1421930297 42.4185
1377 1421931518 41.9598
1378 1421932739 42.2106
1379 1421933959 42.0714
1380 1421935180 42.6425
1381 1421936401 42.5309
1382 1421937622 42.2503
1383 1421938842 42.3628
1384 1421940063 41.9681
1385 1421941284 42.4749
1386 1421942504 42.4888
1387 1421943725 42.0857
1388 1421944946 42.3922
1389 1421946166 42.6068
1390 1421947387 41.9728
1391 1421948608 42.2493
1392 1421949829 42.2540
1393 1421951049 42.6606
1394 1421952270 42.0573
1395 1421953491 42.1983
1396 1421954711 42.1759
1397 1421955932 41.8279
1398 1421957153 41.8889
1399 1421958374 41.7667
1400 1421959594 42.6490
1401 1421960815 42.4590
1402 1421962036 42.7755
1403 1421963256 42.6172
1404 1421964477 42.1490
1405 1421965698 41.7502
1406 1421966918 41.8872
1407 1421968139 42.3926
1408 1421969360 42.2748
1409 1421970581 42.2714
1410 1421971801 42.4733
1411 1421973022 42.3456
1412 1421974243 42.8158
1413 1421975463 42.6293
1414 1421976684 42.4418
1415 1421977905 42.7904
1416 1421979125 42.8502
1417 1421980346 42.6094
1418 1421981567 42.9398
1419 1421982788 42.4566
1420 1421984008 42.7006
1421 1421985229 41.9413
1422 1421986450 42.3583
1423 1421987670 42.7882
1424 1421988891 42.6776
1425 1421990112 42.3027
1426 1421991333 41.8282
1427 1421992553 42.3922
1428 1421993774 42.5846
1429 1421994995 42.6760
1430 1421996215 42.4793
1431 1421997436 42.7567
1432 1421998657 43.7272
1433 1421999877 115.6141
1434 1422001098 188.1020
1435 1422002319 55.2802
1436 1422003540 42.4624
1437 1422004760 42.6568
1438 1422005981 43.1854
1439 1422007202 43.0605
1440 1422008422 42.7252
1441 1422009643 42.8375
1442 1422010864 42.9143
1443 1422012084 42.9739
1444 1422013305 42.9027
1445 1422014526 42.7343
1446 1422015747 43.0999
1447 1422016967 42.2002
1448 1422018188 41.8992
1449 1422019409 42.2454
1450 1422020629 41.7855
1451 1422021850 42.4792
1452 1422023071 43.0371
1453 1422024291 42.7267
1454 1422025512 42.8248
1455 1422026733 43.3059
1456 1422027954 43.1121
1457 1422029174 42.4760
1458 1422030395 42.2471
1459 1422031616 42.2926
1460 1422032836 42.5298
1461 1422034057 42.9476
1462 1422035278 42.5714
1463 1422036499 42.9213
1464 1422037719 42.9671
1465 1422038940 42.7194
1466 1422040161 42.6409
1467 1422041381 42.3677
1468 1422042602 42.9710
1469 1422043823 42.7197
1470 1422045043 42.5976
1471 1422046264 43.0639
1472 1422047485 42.5219
1473 1422048706 42.9157
1474 1422049926 41.9365
1475 1422051147 42.4413
1476 1422052368 42.7545
1477 1422053588 43.1670
1478 1422054809 43.1138
1479 1422056030 42.7672
1480 1422057250 43.1882
1481 1422058471 42.6751
1482 1422059692 42.9817
1483 1422060913 43.1753
1484 1422062133 42.9833
1485 1422063354 42.1942
1486 1422064575 42.2390
1487 1422065795 42.6839
1488 1422067016 43.0179
1489 1422068237 43.0376
1490 1422069458 42.8097
1491 1422070678 43.2387
1492 1422071899 43.4087
1493 1422073120 43.0286
1494 1422074340 42.4331
1495 1422075561 42.7324
1496 1422076782 42.7152
1497 1422078002 42.8639
1498 1422079223 42.7779
1499 1422080444 42.8842
1500 1422081665 42.7308
1501 1422082885 42.6862
1502 1422084106 42.6473
1503 1422085327 42.5607
1504 1422086547 43.1071
1505 1422087768 43.7351
1506 1422088989 42.5071
1507 1422090209 43.1081
1508 1422091430 42.9914
1509 1422092651 42.6972
1510 1422093872 43.2582
1511 1422095092 42.7428
1512 1422096313 43.1121
1513 1422097534 42.5142
1514 1422098754 42.9784
1515 1422099975 43.2952
1516 1422101196 42.7030
1517 1422102416 42.5455
1518 1422103637 42.7843
1519 1422104858 42.5618
1520 1422106079 42.9429
1521 1422107299 43.4147
1522 1422108520 43.3120
1523 1422109741 43.7013
1524 1422110961 44.5096
1525 1422112182 43.1883
1526 1422113403 42.2613
1527 1422114624 43.2809
1528 1422115844 42.5208
1529 1422117065 43.1752
1530 1422118286 43.1820
1531 1422119506 43.9010
1532 1422120727 43.6357
1533 1422121948 42.8556
1534 1422123168 42.3501
1535 1422124389 43.2404
1536 1422125610 43.1214
1537 1422126831 43.3110
1538 1422128051 44.0123
1539 1422129272 43.2654
1540 1422130493 43.0946
1541 1422131713 43.1345
1542 1422132934 43.3525
1543 1422134155 44.1775
1544 1422135375 43.5063
1545 1422136596 42.7415
1546 1422137817 43.7409
1547 1422139038 43.4225
1548 1422140258 43.2403
1549 1422141479 43.0032
1550 1422142700 43.3479
1551 1422143920 43.5515
1552 1422145141 43.4968
1553 1422146362 43.6347
1554 1422147583 43.5147
1555 1422148803 43.8039
1556 1422150024 43.6399
1557 1422151245 43.6849
1558 1422152465 43.5202
1559 1422153686 43.2114
1560 1422154907 44.0597
1561 1422156127 44.1419
1562 1422157348 43.2376
1563 1422158569 43.8055
1564 1422159790 43.4295
1565 1422161010 43.8553
1566 1422162231 43.3708
1567 1422163452 43.5306
1568 1422164672 43.6954
1569 1422165893 43.7984
1570 1422167114 43.6262
1571 1422168334 42.9785
1572 1422169555 43.4649
1573 1422170776 43.2920
1574 1422171997 44.1764
1575 1422173217 43.6600
1576 1422174438 43.1988
1577 1422175659 43.6880
1578 1422176879 43.6719
1579 1422178100 44.0732
1580 1422179321 43.4288
1581 1422180541 43.5210
1582 1422181762 43.9456
1583 1422182983 43.3710
1584 1422184204 43.4645
1585 1422185424 43.2341
1586 1422186645 43.7129
1587 1422187866 43.4734
1588 1422189086 43.7181
1589 1422190307 43.8362
1590 1422191528 43.2697
1591 1422192749 43.5100
1592 1422193969 43.8164
1593 1422195190 44.3015
1594 1422196411 43.8502
1595 1422197631 46.1756
1596 1422198852 46.4152
1597 1422200073 44.4135
1598 1422201293 43.9856
1599 1422202514 44.4448
1600 1422203735 44.7957
1601 1422204956 43.8416
1602 1422206176 43.9497
1603 1422207397 43.4491
1604 1422208618 43.7003
1605 1422209838 43.4901
1606 1422211059 43.7142
1607 1422212280 44.3119
1608 1422213500 43.1194
1609 1422214721 43.1270
1610 1422215942 43.7660
1611 1422217163 43.1840
1612 1422218383 42.7842
1613 1422219604 42.7410
1614 1422220825 43.3308
1615 1422222045 43.3586
1616 1422223266 43.9501
1617 1422224487 43.1032
1618 1422225708 42.8535
1619 1422226928 42.8138
1620 1422228149 43.1910
1621 1422229370 43.6059
1622 1422230590 43.4290
1623 1422231811 42.9455
1624 1422233032 43.5863
1625 1422234252 43.6295
1626 1422235473 43.5127
1627 1422236694 43.3874
1628 1422237915 43.0910
1629 1422239135 43.3258
1630 1422240356 43.4300
1631 1422241577 43.0775
1632 1422242797 43.6632
1633 1422244018 43.4972
1634 1422245239 43.0866
1635 1422246459 43.4180
1636 1422247680 44.0271
1637 1422248901 43.2589
1638 1422250122 42.7844
1639 1422251342 43.3675
1640 1422252563 43.6519
1641 1422253784 43.0733
1642 1422255004 43.5978
1643 1422256225 43.3430
1644 1422257446 42.9485
1645 1422258666 42.8664
1646 1422259887 42.9433
1647 1422261108 42.9937
1648 1422262329 43.0855
1649 1422263549 42.9767
1650 1422264770 43.1042
1651 1422265991 42.9992
1652 1422267211 43.3280
1653 1422268432 43.0078
1654 1422269653 42.2493
1655 1422270874 42.7333
1656 1422272094 42.4060
1657 1422273315 42.8110
1658 1422274536 42.3304
1659 1422275756 42.2044
1660 1422276977 42.6925
1661 1422278198 42.6337
1662 1422279418 42.3057
1663 1422280639 42.3849
1664 1422281860 42.6037
1665 1422283081 42.3969
1666 1422284301 41.9255
1667 1422285522 42.9340
1668 1422286743 42.6288
1669 1422287963 42.1660
1670 1422289184 41.8506
1671 1422290405 42.3304
1672 1422291625 41.9719
1673 1422292846 41.8242
1674 1422294067 42.5179
1675 1422295288 41.8895
1676 1422296508 42.1440
1677 1422297729 41.4252
1678 1422298950 42.0815
1679 1422300170 41.5623
1680 1422301391 41.6574
1681 1422302612 41.5125
1682 1422303833 41.6298
1683 1422305053 41.5387
1684 1422306274 40.9699
1685 1422307495 41.2028
1686 1422308715 41.1638
1687 1422309936 41.2479
1688 1422311157 41.1866
1689 1422312377 40.7473
1690 1422313598 40.7578
1691 1422314819 40.6176
1692 1422316040 40.4135
1693 1422317260 41.1641
1694 1422318481 41.1677
1695 1422319702 41.2367
1696 1422320922 40.5295
1697 1422322143 39.9724
1698 1422323364 40.5139
1699 1422324584 40.6497
1700 1422325805 39.9162
1701 1422327026 40.4067
1702 1422328247 40.5693
1703 1422329467 40.2679
1704 1422330688 40.1992
1705 1422331909 40.4794
1706 1422333129 39.8678
1707 1422334350 39.7986
1708 1422335571 39.9707
1709 1422336791 40.0241
1710 1422338012 39.8708
1711 1422339233 39.8645
1712 1422340454 39.7309
1713 1422341674 39.8485
1714 1422342895 39.9375
1715 1422344116 39.0314
1716 1422345336 39.0969
1717 1422346557 39.1972
1718 1422347778 39.6335
1719 1422348999 39.6594
1720 1422350219 39.4810
1721 1422351440 38.9943
1722 1422352661 38.8793
1723 1422353881 39.6100
1724 1422355102 39.0979
1725 1422356323 38.8760
1726 1422357543 38.6990
1727 1422358764 38.0776
1728 1422359985 38.5239
1729 1422361206 38.8709
1730 1422362426 39.1912
1731 1422363647 38.5607
1732 1422364868 38.7026
1733 1422366088 37.9928
1734 1422367309 37.9792
1735 1422368530 37.8655
1736 1422369750 37.9741
1737 1422370971 37.8422
1738 1422372192 37.8115
1739 1422373413 37.2151
1740 1422374633 37.5508
1741 1422375854 37.5334
1742 1422377075 37.6592
1743 1422378295 37.4236
1744 1422379516 36.6687
1745 1422380737 36.6627
1746 1422381958 37.2215
1747 1422383178 36.7486
1748 1422384399 37.1535
1749 1422385620 36.9216
1750 1422386840 36.6988
1751 1422388061 36.9304
1752 1422389282 36.7592
1753 1422390502 36.7979
1754 1422391723 36.3914
1755 1422392944 36.2987
1756 1422394165 35.5766
1757 1422395385 36.3323
1758 1422396606 36.7663
1759 1422397827 36.1966
1760 1422399047 36.1545
1761 1422400268 35.9578
1762 1422401489 35.4437
1763 1422402709 35.5737
1764 1422403930 35.4050
1765 1422405151 34.8975
1766 1422406372 35.4391
1767 1422407592 35.4696
1768 1422408813 34.5979
1769 1422410034 35.1786
1770 1422411254 34.8260
1771 1422412475 34.6756
1772 1422413696 34.6851
1773 1422414916 34.2349
1774 1422416137 34.1892
1775 1422417358 34.0409
1776 1422418579 33.9851
1777 1422419799 34.0416
1778 1422421020 33.9148
1779 1422422241 33.6011
1780 1422423461 34.0827
1781 1422424682 33.9326
1782 1422425903 33.7084
1783 1422427124 33.5226
1784 1422428344 33.6213
1785 1422429565 33.2825
1786 1422430786 33.3515
1787 1422432006 33.2835
1788 1422433227 32.9237
1789 1422434448 32.3891
1790 1422435668 32.6066
1791 1422436889 32.7031
1792 1422438110 32.3993
1793 1422439331 32.4762
1794 1422440551 31.8201
1795 1422441772 31.8359
1796 1422442993 31.9345
1797 1422444213 32.1082
1798 1422445434 32.3293
1799 1422446655 31.8303
1800 1422447875 31.1773
1801 1422449096 31.6095
1802 1422450317 31.3084
1803 1422451538 31.5430
1804 1422452758 31.0677
1805 1422453979 30.7780
1806 1422455200 30.5135
1807 1422456420 30.9293
1808 1422457641 30.4577
1809 1422458862 30.1764
1810 1422460083 30.2717
1811 1422461303 30.3018
1812 1422462524 29.9980
1813 1422463745 29.9607
1814 1422464965 30.1751
1815 1422466186 29.8813
1816 1422467407 29.7418
1817 1422468627 29.4781
1818 1422469848 29.6781
1819 1422471069 29.2353
1820 1422472290 29.2358
1821 1422473510 29.1271
1822 1422474731 28.9878
1823 1422475952 28.7925
1824 1422477172 28.8348
1825 1422478393 28.8682
1826 1422479614 28.6468
1827 1422480834 28.3568
1828 1422482055 28.2794
1829 1422483276 28.1526
1830 1422484497 27.9517
1831 1422485717 28.3479
1832 1422486938 27.6403
1833 1422488159 27.3912
1834 1422489379 27.4767
1835 1422490600 27.4897
1836 1422491821 27.1036
1837 1422493041 27.0437
1838 1422494262 27.1072
1839 1422495483 26.5803
1840 1422496704 26.6569
1841 1422497924 26.4253
1842 1422499145 26.1740
1843 1422500366 26.2476
1844 1422501586 26.1206
1845 1422502807 25.7911
1846 1422504028 25.9205
1847 1422505249 25.8042
1848 1422506469 25.9849
1849 1422507690 25.4733
1850 1422508911 25.5420
1851 1422510131 25.3117
1852 1422511352 25.3301
1853 1422512573 24.9539
1854 1422513793 25.2163
1855 1422515014 24.8253
1856 1422516235 24.9311
1857 1422517456 24.4709
1858 1422518676 24.4946
1859 1422519897 24.3461
1860 1422521118 24.2841
1861 1422522338 23.8269
1862 1422523559 23.9684
1863 1422524780 24.0035
1864 1422526000 23.7979
1865 1422527221 23.9222
1866 1422528442 23.3733
1867 1422529663 23.2743
1868 1422530883 23.0217
1869 1422532104 23.2754
1870 1422533325 22.8719
1871 1422534545 23.2077
1872 1422535766 22.8965
1873 1422536987 22.5538
1874 1422538208 22.8581
1875 1422539428 22.6712
1876 1422540649 22.4249
1877 1422541870 21.8272
1878 1422543090 21.6976
1879 1422544311 21.8472
1880 1422545532 21.5851
1881 1422546752 21.6305
1882 1422547973 21.5702
1883 1422549194 21.5608
1884 1422550415 21.1477
1885 1422551635 21.0556
1886 1422552856 21.2008
1887 1422554077 20.6745
1888 1422555297 20.5479
1889 1422556518 20.5240
1890 1422557739 20.5872
1891 1422558959 20.2740
1892 1422560180 20.1533
1893 1422561401 20.0090
1894 1422562622 19.8760
1895 1422563842 20.0109
1896 1422565063 19.9297
1897 1422566284 19.8270
1898 1422567504 19.4191
1899 1422568725 19.3563
1900 1422569946 19.1846
1901 1422571166 19.2448
1902 1422572387 19.1611
1903 1422573608 18.9833
1904 1422574829 18.9985
1905 1422576049 18.5268
1906 1422577270 18.7562
1907 1422578491 18.5994
1908 1422579711 18.2756
1909 1422580932 18.2866
1910 1422582153 18.0072
1911 1422583374 17.7954
1912 1422584594 17.6493
1913 1422585815 17.8602
1914 1422587036 17.7227
1915 1422588256 17.3383
1916 1422589477 17.2713
1917 1422590698 17.3743
1918 1422591918 17.1884
1919 1422593139 17.2605
1920 1422594360 16.9776
1921 1422595581 16.8893
1922 1422596801 16.8189
1923 1422598022 16.6318
1924 1422599243 16.4298
1925 1422600463 16.4464
1926 1422601684 16.4312
1927 1422602905 16.1160
1928 1422604125 16.5207
1929 1422605346 15.9962
1930 1422606567 15.9805
1931 1422607788 15.9578
1932 1422609008 15.8733
1933 1422610229 15.5960
1934 1422611450 15.4799
1935 1422612670 15.4579
1936 1422613891 15.3101
1937 1422615112 15.3733
1938 1422616333 14.9710
1939 1422617553 15.0218
1940 1422618774 14.8812
1941 1422619995 14.6988
1942 1422621215 14.5437
1943 1422622436 14.5763
1944 1422623657 14.4687
1945 1422624877 14.2712
1946 1422626098 14.2926
1947 1422627319 14.3153
1948 1422628540 14.0425
1949 1422629760 13.8912
1950 1422630981 13.6469
1951 1422632202 13.8977
1952 1422633422 13.8816
1953 1422634643 13.6541
1954 1422635864 13.4614
1955 1422637084 13.4271
1956 1422638305 13.4983
1957 1422639526 13.4231
1958 1422640747 13.2010
1959 1422641967 13.1064
1960 1422643188 12.9633
1961 1422644409 13.1804
1962 1422645629 12.9240
1963 1422646850 12.8875
1964 1422648071 12.7518
1965 1422649291 12.6236
1966 1422650512 12.4854
1967 1422651733 12.4355
1968 1422652954 12.3461
1969 1422654174 12.3250
1970 1422655395 12.3037
1971 1422656616 12.1359
1972 1422657836 12.0225
1973 1422659057 12.1577
1974 1422660278 12.0615
1975 1422661499 11.8072
1976 1422662719 11.7902
1977 1422663940 11.7911
1978 1422665161 11.7208
1979 1422666381 11.6153
1980 1422667602 11.5783
1981 1422668823 11.2882
1982 1422670043 11.2900
1983 1422671264 11.3517
1984 1422672485 11.4084
1985 1422673706 11.3345
1986 1422674926 11.1726
1987 1422676147 11.1324
1988 1422677368 11.0381
1989 1422678588 10.9229
1990 1422679809 10.9304
1991 1422681030 10.9006
1992 1422682250 10.8454
1993 1422683471 10.7446
1994 1422684692 10.6548
1995 1422685913 10.5848
1996 1422687133 10.4064
1997 1422688354 10.3676
1998 1422689575 10.2984
1999 1422690795 10.3473
2000 1422692016 10.2434
2001 1422693237 10.2674
2002 1422694458 10.2494
2003 1422695678 10.0944
2004 1422696899 10.1880
2005 1422698120 10.2490
2006 1422699340 10.1985
2007 1422700561 10.3641
2008 1422701782 9.9646
2009 1422703002 9.9496
2010 1422704223 9.9654
2011 1422705444 9.7918
2012 1422706665 9.7377
2013 1422707885 9.7278
2014 1422709106 9.6906
2015 1422710327 9.7188
2016 1422711547 9.7047
2017 1422712768 9.5931
2018 1422713989 9.5113
2019 1422715209 9.5765
2020 1422716430 9.5306
2021 1422717651 9.4570
2022 1422718872 9.4167
2023 1422720092 9.3106
2024 1422721313 9.4384
2025 1422722534 9.4257
2026 1422723754 9.2859
2027 1422724975 9.2533
2028 1422726196 9.2210
2029 1422727416 9.2786
2030 1422728637 9.1810
2031 1422729858 9.2280
2032 1422731079 9.1487
2033 1422732299 9.1915
2034 1422733520 9.2114
2035 1422734741 9.2067
2036 1422735961 9.0939
2037 1422737182 9.1829
2038 1422738403 9.0517
2039 1422739624 9.0216
2040 1422740844 9.0667
2041 1422742065 9.0228
2042 1422743286 9.0356
2043 1422744506 9.0453
2044 1422745727 9.0295
2045 1422746948 9.0204
2046 1422748168 9.1193
2047 1422749389 9.3445
