# File: 20-05-31T223401.hot
# NOTEA     = None Attached.  RTLSDR Dongle Test
# NOTEB     = Spectral Integration
# OBSERVER  = Science Aficionado
# DEVICE    = rtlsdr=0
# DATADIR   = ../data/
# SITE      = None Attached.  RTLSDR Dongle Test
# CITY      = Green Bank
# REGION    = West Virginia
# COUNTRY   = US
# TELTYPE   = Bubble Wrap  Horn
# FRAME     = TOPO
# GAIN1     = 49.0
# GAIN2     = 11.0
# GAIN3     = 11.0
# GAIN4     = 0.0
# Count     = 10000
# CenterFreq= 1400000000.0
# Bandwidth = 2500000.0
# Duration  = 41.947623
# DeltaX    = 5859.375
# TSYS      = 200.0
# TRX       = 100.0
# TRMS      = 2.0
# TINT      = 1.0
# KPERC     = 100.0
# GAINFACT  = 1.0
# BUNIT     = Counts
# NCHAN     = 1024
# NSPEC     = 1
# NTIME     = 0
# NSAMPLES  = 0
# EPEAK     = 4.10875183718
# ERMS      = 0.995973393526
# EMJD      = 58568.808999981004 
# REFCHAN   = 512.0
# REFSAMPL  = 256.0
# NAVE      = 100
# NMEDIAN   = 1024
# Fft_rate  = 5000
# UTC       = 2020-05-31 22:34:01.875438
# SECONDS   =       0.0000000000 
# LST       = 09:54:10.780
# AZ        = 180.0
# EL        = -90.0
# TELLON    = -79:50:22.920
# TELLAT    = +38:25:59.160
# RA        = 21:51:43.280
# DEC       = -38:37:39.100
# GALLON    = 04:07:35.50
# GALLAT    = -50:58:37.10
# ALT_SUN   = +21:43:37.2
# AZ_SUN    = +281:34:58.0
# ETAA      = 0.8
# ETAB      = 0.99
# POLANGLE  = 0.0
# TELSIZEAM = 1.0
# TELSIZEBM = 1.0
# AST_VERS  = 05.01
0000 1398751220 9.3795
0001 1398753662 9.1952
0002 1398756103 9.4030
0003 1398758544 9.3786
0004 1398760986 9.3473
0005 1398763427 9.3991
0006 1398765869 9.2626
0007 1398768310 9.2103
0008 1398770751 9.3288
0009 1398773193 9.4021
0010 1398775634 9.6359
0011 1398778076 9.4864
0012 1398780517 9.3533
0013 1398782958 9.4520
0014 1398785400 9.4992
0015 1398787841 10.0500
0016 1398790283 9.6901
0017 1398792724 9.6833
0018 1398795166 9.8236
0019 1398797607 12.1162
0020 1398800048 11.7350
0021 1398802490 10.0263
0022 1398804931 10.1032
0023 1398807373 10.0563
0024 1398809814 10.2147
0025 1398812255 10.3468
0026 1398814697 10.3576
0027 1398817138 10.3432
0028 1398819580 10.4701
0029 1398822021 10.6791
0030 1398824462 10.7143
0031 1398826904 10.9861
0032 1398829345 11.0390
0033 1398831787 11.1906
0034 1398834228 11.3889
0035 1398836669 11.8047
0036 1398839111 11.3383
0037 1398841552 11.6028
0038 1398843994 11.6797
0039 1398846435 11.8859
0040 1398848876 12.0209
0041 1398851318 12.1842
0042 1398853759 12.2922
0043 1398856201 12.4102
0044 1398858642 12.6523
0045 1398861083 12.5993
0046 1398863525 12.7483
0047 1398865966 13.1306
0048 1398868408 13.3394
0049 1398870849 13.5869
0050 1398873291 13.7669
0051 1398875732 13.7663
0052 1398878173 14.0312
0053 1398880615 14.3826
0054 1398883056 14.3463
0055 1398885498 14.7406
0056 1398887939 15.7234
0057 1398890380 15.1073
0058 1398892822 15.2428
0059 1398895263 16.0472
0060 1398897705 16.4258
0061 1398900146 15.8804
0062 1398902587 15.7860
0063 1398905029 16.1302
0064 1398907470 16.3714
0065 1398909912 16.5863
0066 1398912353 17.0344
0067 1398914794 17.6185
0068 1398917236 17.2803
0069 1398919677 17.7359
0070 1398922119 17.5950
0071 1398924560 18.0325
0072 1398927001 18.5133
0073 1398929443 18.4469
0074 1398931884 18.8271
0075 1398934326 18.8377
0076 1398936767 18.8798
0077 1398939208 19.4657
0078 1398941650 19.6065
0079 1398944091 19.5862
0080 1398946533 19.9686
0081 1398948974 20.2970
0082 1398951416 20.3472
0083 1398953857 20.6473
0084 1398956298 21.5047
0085 1398958740 21.7950
0086 1398961181 21.1990
0087 1398963623 22.0324
0088 1398966064 21.9184
0089 1398968505 22.1037
0090 1398970947 22.4934
0091 1398973388 23.0798
0092 1398975830 22.7330
0093 1398978271 23.3875
0094 1398980712 23.4798
0095 1398983154 23.6109
0096 1398985595 24.7886
0097 1398988037 26.6288
0098 1398990478 24.5594
0099 1398992919 24.6437
0100 1398995361 24.7923
0101 1398997802 24.9062
0102 1399000244 25.1832
0103 1399002685 25.8916
0104 1399005126 25.8267
0105 1399007568 26.2870
0106 1399010009 27.4878
0107 1399012451 27.4217
0108 1399014892 27.1088
0109 1399017333 28.5167
0110 1399019775 27.6582
0111 1399022216 27.4168
0112 1399024658 28.0853
0113 1399027099 28.2481
0114 1399029541 28.3696
0115 1399031982 28.6107
0116 1399034423 28.7784
0117 1399036865 28.3511
0118 1399039306 28.9833
0119 1399041748 29.3894
0120 1399044189 29.6501
0121 1399046630 29.6925
0122 1399049072 30.1588
0123 1399051513 29.9734
0124 1399053955 30.5778
0125 1399056396 31.0176
0126 1399058837 31.0510
0127 1399061279 31.4511
0128 1399063720 31.9027
0129 1399066162 31.3334
0130 1399068603 32.0103
0131 1399071044 32.5151
0132 1399073486 31.9608
0133 1399075927 32.6421
0134 1399078369 33.8654
0135 1399080810 32.9025
0136 1399083251 32.4478
0137 1399085693 33.7204
0138 1399088134 34.6930
0139 1399090576 33.8297
0140 1399093017 34.0627
0141 1399095458 34.2701
0142 1399097900 34.3205
0143 1399100341 34.8086
0144 1399102783 34.9830
0145 1399105224 34.7110
0146 1399107666 35.1010
0147 1399110107 35.3316
0148 1399112548 35.4303
0149 1399114990 35.6905
0150 1399117431 35.8205
0151 1399119873 36.0486
0152 1399122314 36.4480
0153 1399124755 36.2450
0154 1399127197 36.5144
0155 1399129638 37.1033
0156 1399132080 37.4310
0157 1399134521 36.8868
0158 1399136962 37.6575
0159 1399139404 38.9910
0160 1399141845 37.5099
0161 1399144287 37.3061
0162 1399146728 37.9604
0163 1399149169 38.2762
0164 1399151611 38.3007
0165 1399154052 38.7024
0166 1399156494 38.4128
0167 1399158935 38.5541
0168 1399161376 38.5649
0169 1399163818 38.7264
0170 1399166259 38.8445
0171 1399168701 39.7375
0172 1399171142 39.0523
0173 1399173583 39.4600
0174 1399176025 39.3175
0175 1399178466 39.3929
0176 1399180908 40.1397
0177 1399183349 40.0925
0178 1399185791 40.2487
0179 1399188232 41.5335
0180 1399190673 41.5849
0181 1399193115 40.6217
0182 1399195556 40.3772
0183 1399197998 41.9868
0184 1399200439 42.6417
0185 1399202880 40.6403
0186 1399205322 41.1782
0187 1399207763 41.8076
0188 1399210205 41.1987
0189 1399212646 41.0242
0190 1399215087 41.3384
0191 1399217529 41.0437
0192 1399219970 41.7163
0193 1399222412 42.1346
0194 1399224853 41.4153
0195 1399227294 40.9607
0196 1399229736 41.7133
0197 1399232177 42.5589
0198 1399234619 41.8028
0199 1399237060 41.7900
0200 1399239501 41.9383
0201 1399241943 42.1760
0202 1399244384 43.7774
0203 1399246826 43.0372
0204 1399249267 42.0828
0205 1399251708 42.7279
0206 1399254150 42.6249
0207 1399256591 42.2991
0208 1399259033 43.3883
0209 1399261474 43.0939
0210 1399263916 42.2861
0211 1399266357 42.3082
0212 1399268798 42.6114
0213 1399271240 42.9470
0214 1399273681 42.9285
0215 1399276123 43.2974
0216 1399278564 42.1047
0217 1399281005 42.9091
0218 1399283447 42.7445
0219 1399285888 44.9596
0220 1399288330 46.9096
0221 1399290771 42.9725
0222 1399293212 43.1593
0223 1399295654 43.3609
0224 1399298095 42.5986
0225 1399300537 42.2676
0226 1399302978 42.9291
0227 1399305419 43.7426
0228 1399307861 43.0947
0229 1399310302 43.0287
0230 1399312744 44.5126
0231 1399315185 43.3784
0232 1399317626 42.8318
0233 1399320068 44.5038
0234 1399322509 44.1153
0235 1399324951 43.2544
0236 1399327392 43.2593
0237 1399329833 44.1240
0238 1399332275 43.9327
0239 1399334716 43.5710
0240 1399337158 43.8415
0241 1399339599 43.4369
0242 1399342041 43.3691
0243 1399344482 43.1323
0244 1399346923 42.6465
0245 1399349365 43.0409
0246 1399351806 43.7809
0247 1399354248 43.1681
0248 1399356689 43.0885
0249 1399359130 43.3465
0250 1399361572 43.2461
0251 1399364013 43.4478
0252 1399366455 43.9570
0253 1399368896 43.6475
0254 1399371337 43.7056
0255 1399373779 44.5602
0256 1399376220 42.9528
0257 1399378662 43.3793
0258 1399381103 44.8237
0259 1399383544 43.4696
0260 1399385986 43.1227
0261 1399388427 43.5539
0262 1399390869 43.7490
0263 1399393310 43.4991
0264 1399395751 43.2004
0265 1399398193 43.2957
0266 1399400634 43.1068
0267 1399403076 43.3379
0268 1399405517 42.8933
0269 1399407958 42.5697
0270 1399410400 43.1090
0271 1399412841 43.3471
0272 1399415283 42.5150
0273 1399417724 42.6366
0274 1399420166 42.6985
0275 1399422607 43.0597
0276 1399425048 42.8316
0277 1399427490 43.4744
0278 1399429931 42.6993
0279 1399432373 42.8717
0280 1399434814 43.7201
0281 1399437255 42.7440
0282 1399439697 42.7252
0283 1399442138 44.6299
0284 1399444580 42.9461
0285 1399447021 42.0322
0286 1399449462 43.0976
0287 1399451904 43.5575
0288 1399454345 42.7252
0289 1399456787 42.4788
0290 1399459228 42.5829
0291 1399461669 42.8043
0292 1399464111 42.8726
0293 1399466552 43.0324
0294 1399468994 43.1022
0295 1399471435 42.5772
0296 1399473876 43.1290
0297 1399476318 42.4128
0298 1399478759 42.3454
0299 1399481201 42.4732
0300 1399483642 42.2249
0301 1399486083 43.7398
0302 1399488525 44.5413
0303 1399490966 42.2961
0304 1399493408 43.0356
0305 1399495849 43.6741
0306 1399498291 43.0994
0307 1399500732 44.4191
0308 1399503173 43.6666
0309 1399505615 42.9019
0310 1399508056 43.2492
0311 1399510498 42.9866
0312 1399512939 42.4331
0313 1399515380 42.6329
0314 1399517822 42.8664
0315 1399520263 42.6038
0316 1399522705 42.1647
0317 1399525146 43.0254
0318 1399527587 42.9932
0319 1399530029 42.7275
0320 1399532470 42.9017
0321 1399534912 42.6588
0322 1399537353 42.2666
0323 1399539794 42.9413
0324 1399542236 42.9315
0325 1399544677 43.1907
0326 1399547119 43.1019
0327 1399549560 42.6737
0328 1399552001 43.0296
0329 1399554443 44.2707
0330 1399556884 44.9194
0331 1399559326 43.3381
0332 1399561767 44.4031
0333 1399564208 45.5453
0334 1399566650 43.2140
0335 1399569091 42.7111
0336 1399571533 44.1911
0337 1399573974 42.6124
0338 1399576416 42.9913
0339 1399578857 43.3826
0340 1399581298 42.9922
0341 1399583740 43.1408
0342 1399586181 45.7502
0343 1399588623 46.3004
0344 1399591064 43.2872
0345 1399593505 44.1369
0346 1399595947 43.2539
0347 1399598388 43.1147
0348 1399600830 43.7329
0349 1399603271 43.7147
0350 1399605712 43.6264
0351 1399608154 43.7877
0352 1399610595 43.4080
0353 1399613037 43.5141
0354 1399615478 44.4438
0355 1399617919 44.3876
0356 1399620361 44.3821
0357 1399622802 45.8920
0358 1399625244 46.6784
0359 1399627685 44.1336
0360 1399630126 44.0860
0361 1399632568 45.3947
0362 1399635009 44.7751
0363 1399637451 44.8680
0364 1399639892 44.5280
0365 1399642333 44.4215
0366 1399644775 44.6241
0367 1399647216 44.5280
0368 1399649658 44.5280
0369 1399652099 45.0534
0370 1399654541 45.0558
0371 1399656982 44.6144
0372 1399659423 44.4133
0373 1399661865 44.7923
0374 1399664306 44.3601
0375 1399666748 44.8487
0376 1399669189 46.0106
0377 1399671630 45.4219
0378 1399674072 45.0935
0379 1399676513 48.0629
0380 1399678955 46.8605
0381 1399681396 47.1025
0382 1399683837 47.9163
0383 1399686279 47.5475
0384 1399688720 45.0990
0385 1399691162 45.8305
0386 1399693603 45.4937
0387 1399696044 45.4215
0388 1399698486 45.6734
0389 1399700927 46.3934
0390 1399703369 45.4874
0391 1399705810 45.8148
0392 1399708251 46.4967
0393 1399710693 46.1442
0394 1399713134 46.3140
0395 1399715576 46.8925
0396 1399718017 46.3783
0397 1399720458 47.2956
0398 1399722900 47.2841
0399 1399725341 46.3300
0400 1399727783 46.5698
0401 1399730224 46.7687
0402 1399732666 46.6394
0403 1399735107 46.3422
0404 1399737548 47.4043
0405 1399739990 46.7435
0406 1399742431 46.9364
0407 1399744873 49.0220
0408 1399747314 49.4194
0409 1399749755 53.3480
0410 1399752197 50.8036
0411 1399754638 47.5340
0412 1399757080 48.0201
0413 1399759521 47.8197
0414 1399761962 47.9222
0415 1399764404 47.6318
0416 1399766845 47.9333
0417 1399769287 48.0086
0418 1399771728 47.9294
0419 1399774169 48.7214
0420 1399776611 49.0003
0421 1399779052 48.7932
0422 1399781494 48.7192
0423 1399783935 48.4532
0424 1399786376 51.0862
0425 1399788818 51.0871
0426 1399791259 49.7971
0427 1399793701 51.3284
0428 1399796142 49.3210
0429 1399798583 49.7610
0430 1399801025 49.8072
0431 1399803466 50.4093
0432 1399805908 49.8590
0433 1399808349 50.5791
0434 1399810791 50.0147
0435 1399813232 50.4813
0436 1399815673 49.7923
0437 1399818115 49.9594
0438 1399820556 50.3926
0439 1399822998 50.5426
0440 1399825439 50.1353
0441 1399827880 49.7035
0442 1399830322 50.6745
0443 1399832763 50.7570
0444 1399835205 50.4579
0445 1399837646 49.7010
0446 1399840087 50.4402
0447 1399842529 51.4164
0448 1399844970 51.7208
0449 1399847412 51.2816
0450 1399849853 50.6109
0451 1399852294 50.8556
0452 1399854736 51.1568
0453 1399857177 52.6999
0454 1399859619 52.5830
0455 1399862060 52.2798
0456 1399864501 51.5001
0457 1399866943 54.0725
0458 1399869384 52.2851
0459 1399871826 52.0308
0460 1399874267 52.1512
0461 1399876708 51.1597
0462 1399879150 51.8598
0463 1399881591 51.8895
0464 1399884033 51.8257
0465 1399886474 53.9004
0466 1399888916 54.4082
0467 1399891357 52.2283
0468 1399893798 52.1889
0469 1399896240 54.1411
0470 1399898681 54.3184
0471 1399901123 52.2074
0472 1399903564 52.6781
0473 1399906005 52.7141
0474 1399908447 52.8058
0475 1399910888 53.0172
0476 1399913330 53.3810
0477 1399915771 53.1834
0478 1399918212 53.1738
0479 1399920654 53.3922
0480 1399923095 53.4252
0481 1399925537 53.2317
0482 1399927978 54.5425
0483 1399930419 54.5196
0484 1399932861 56.9607
0485 1399935302 55.3463
0486 1399937744 53.6813
0487 1399940185 53.9620
0488 1399942626 54.2795
0489 1399945068 53.8856
0490 1399947509 53.7528
0491 1399949951 54.8700
0492 1399952392 54.3505
0493 1399954833 54.1514
0494 1399957275 54.8315
0495 1399959716 55.8210
0496 1399962158 54.6906
0497 1399964599 54.9928
0498 1399967041 54.7355
0499 1399969482 55.1642
0500 1399971923 56.2104
0501 1399974365 61.9129
0502 1399976806 59.9980
0503 1399979248 60.0614
0504 1399981689 64.0638
0505 1399984130 60.6713
0506 1399986572 69.8945
0507 1399989013 83.0050
0508 1399991455 61.7277
0509 1399993896 61.0699
0510 1399996337 217.5037
0511 1399998779 694.2166
0512 1400001220 162.7729
0513 1400003662 67.7182
0514 1400006103 60.1101
0515 1400008544 58.3550
0516 1400010986 60.9975
0517 1400013427 62.8906
0518 1400015869 65.6280
0519 1400018310 56.3913
0520 1400020751 56.9546
0521 1400023193 57.8856
0522 1400025634 56.8119
0523 1400028076 56.0237
0524 1400030517 55.4147
0525 1400032958 55.3605
0526 1400035400 54.9865
0527 1400037841 55.6431
0528 1400040283 56.3654
0529 1400042724 55.6280
0530 1400045166 53.9547
0531 1400047607 55.9736
0532 1400050048 55.3654
0533 1400052490 53.6643
0534 1400054931 54.7342
0535 1400057373 54.3707
0536 1400059814 54.9547
0537 1400062255 53.6111
0538 1400064697 53.8315
0539 1400067138 53.3614
0540 1400069580 53.5370
0541 1400072021 53.8731
0542 1400074462 53.5707
0543 1400076904 53.0212
0544 1400079345 53.0829
0545 1400081787 53.0763
0546 1400084228 54.3055
0547 1400086669 59.6378
0548 1400089111 55.4701
0549 1400091552 52.6680
0550 1400093994 53.1803
0551 1400096435 53.7047
0552 1400098876 52.9411
0553 1400101318 52.4900
0554 1400103759 52.9867
0555 1400106201 52.7465
0556 1400108642 54.2909
0557 1400111083 54.9401
0558 1400113525 53.0533
0559 1400115966 53.1588
0560 1400118408 52.8843
0561 1400120849 52.2942
0562 1400123291 52.6187
0563 1400125732 52.6424
0564 1400128173 51.9985
0565 1400130615 51.8009
0566 1400133056 52.5364
0567 1400135498 52.4715
0568 1400137939 51.7690
0569 1400140380 51.8191
0570 1400142822 51.3818
0571 1400145263 51.4182
0572 1400147705 51.8128
0573 1400150146 51.2004
0574 1400152587 51.0994
0575 1400155029 52.7928
0576 1400157470 51.7496
0577 1400159912 51.6685
0578 1400162353 53.5468
0579 1400164794 52.1477
0580 1400167236 50.8695
0581 1400169677 52.5943
0582 1400172119 52.3201
0583 1400174560 51.0522
0584 1400177001 50.9841
0585 1400179443 51.0690
0586 1400181884 50.3387
0587 1400184326 50.4617
0588 1400186767 52.3765
0589 1400189208 50.5409
0590 1400191650 50.7219
0591 1400194091 50.9107
0592 1400196533 50.7162
0593 1400198974 50.1266
0594 1400201416 50.1560
0595 1400203857 49.9294
0596 1400206298 49.7642
0597 1400208740 50.7086
0598 1400211181 49.8023
0599 1400213623 49.6325
0600 1400216064 49.3905
0601 1400218505 49.6326
0602 1400220947 49.5008
0603 1400223388 50.2095
0604 1400225830 49.4145
0605 1400228271 48.6420
0606 1400230712 49.4804
0607 1400233154 49.5098
0608 1400235595 48.9715
0609 1400238037 48.7935
0610 1400240478 48.8926
0611 1400242919 48.6441
0612 1400245361 48.2592
0613 1400247802 48.1699
0614 1400250244 48.2349
0615 1400252685 48.4580
0616 1400255126 48.4733
0617 1400257568 49.0992
0618 1400260009 52.0203
0619 1400262451 48.8594
0620 1400264892 47.8227
0621 1400267333 47.9644
0622 1400269775 47.7571
0623 1400272216 47.2660
0624 1400274658 47.0334
0625 1400277099 48.6337
0626 1400279541 47.2357
0627 1400281982 48.2840
0628 1400284423 50.9169
0629 1400286865 49.1746
0630 1400289306 47.7518
0631 1400291748 50.1791
0632 1400294189 48.1370
0633 1400296630 47.4974
0634 1400299072 47.2904
0635 1400301513 46.9474
0636 1400303955 47.8598
0637 1400306396 46.8581
0638 1400308837 46.9474
0639 1400311279 46.4529
0640 1400313720 46.2048
0641 1400316162 46.6174
0642 1400318603 46.3974
0643 1400321044 46.5654
0644 1400323486 47.6761
0645 1400325927 45.9685
0646 1400328369 46.5443
0647 1400330810 47.0813
0648 1400333251 46.7019
0649 1400335693 46.3709
0650 1400338134 46.4033
0651 1400340576 46.1982
0652 1400343017 46.2276
0653 1400345458 47.4116
0654 1400347900 45.3542
0655 1400350341 45.1904
0656 1400352783 46.4971
0657 1400355224 46.2844
0658 1400357666 45.9124
0659 1400360107 45.0673
0660 1400362548 45.2878
0661 1400364990 44.9921
0662 1400367431 45.4275
0663 1400369873 44.8868
0664 1400372314 44.7536
0665 1400374755 45.7356
0666 1400377197 45.9764
0667 1400379638 46.0339
0668 1400382080 44.7980
0669 1400384521 44.9562
0670 1400386962 48.8011
0671 1400389404 46.9628
0672 1400391845 45.5061
0673 1400394287 45.1246
0674 1400396728 45.0936
0675 1400399169 45.6597
0676 1400401611 45.1064
0677 1400404052 45.3512
0678 1400406494 45.8672
0679 1400408935 44.5470
0680 1400411376 45.1034
0681 1400413818 46.9608
0682 1400416259 45.0608
0683 1400418701 44.2927
0684 1400421142 44.5617
0685 1400423583 44.5554
0686 1400426025 44.5727
0687 1400428466 44.7271
0688 1400430908 44.5104
0689 1400433349 43.8655
0690 1400435791 43.6967
0691 1400438232 43.8477
0692 1400440673 43.7459
0693 1400443115 44.6499
0694 1400445556 44.5440
0695 1400447998 43.9028
0696 1400450439 44.2918
0697 1400452880 44.4637
0698 1400455322 43.7565
0699 1400457763 44.6964
0700 1400460205 44.5996
0701 1400462646 44.4020
0702 1400465087 45.9786
0703 1400467529 46.2541
0704 1400469970 44.2530
0705 1400472412 44.4910
0706 1400474853 46.5256
0707 1400477294 44.6427
0708 1400479736 43.8429
0709 1400482177 44.4086
0710 1400484619 44.4001
0711 1400487060 44.5193
0712 1400489501 44.3793
0713 1400491943 44.1632
0714 1400494384 47.8511
0715 1400496826 51.5413
0716 1400499267 45.8679
0717 1400501708 44.0054
0718 1400504150 44.7257
0719 1400506591 44.5561
0720 1400509033 44.4734
0721 1400511474 44.8395
0722 1400513916 44.5049
0723 1400516357 44.3396
0724 1400518798 44.6789
0725 1400521240 45.1555
0726 1400523681 44.5963
0727 1400526123 46.3965
0728 1400528564 45.2628
0729 1400531005 44.5637
0730 1400533447 45.5025
0731 1400535888 46.8016
0732 1400538330 44.8743
0733 1400540771 44.7221
0734 1400543212 45.6314
0735 1400545654 44.1772
0736 1400548095 44.5808
0737 1400550537 45.5815
0738 1400552978 44.5642
0739 1400555419 44.8650
0740 1400557861 46.3259
0741 1400560302 44.8354
0742 1400562744 44.7786
0743 1400565185 44.7821
0744 1400567626 44.8582
0745 1400570068 44.5300
0746 1400572509 45.7903
0747 1400574951 44.8355
0748 1400577392 44.7487
0749 1400579833 45.2174
0750 1400582275 45.3080
0751 1400584716 45.1556
0752 1400587158 50.0745
0753 1400589599 46.3491
0754 1400592041 44.7791
0755 1400594482 47.4552
0756 1400596923 49.0261
0757 1400599365 45.8923
0758 1400601806 44.9977
0759 1400604248 45.3374
0760 1400606689 44.7640
0761 1400609130 45.7515
0762 1400611572 45.8503
0763 1400614013 45.0825
0764 1400616455 45.1082
0765 1400618896 46.3523
0766 1400621337 45.6434
0767 1400623779 45.7517
0768 1400626220 46.2891
0769 1400628662 45.0391
0770 1400631103 45.5769
0771 1400633544 45.8000
0772 1400635986 45.4234
0773 1400638427 45.5123
0774 1400640869 46.8979
0775 1400643310 45.4954
0776 1400645751 46.1456
0777 1400648193 47.7208
0778 1400650634 45.8505
0779 1400653076 45.6873
0780 1400655517 47.0249
0781 1400657958 46.7011
0782 1400660400 45.5055
0783 1400662841 46.2096
0784 1400665283 45.2717
0785 1400667724 45.4467
0786 1400670166 46.2584
0787 1400672607 49.7523
0788 1400675048 52.0041
0789 1400677490 47.0037
0790 1400679931 46.0644
0791 1400682373 45.5344
0792 1400684814 46.0509
0793 1400687255 47.2369
0794 1400689697 45.8488
0795 1400692138 46.9020
0796 1400694580 49.9956
0797 1400697021 48.0231
0798 1400699462 45.4705
0799 1400701904 45.8934
0800 1400704345 45.4623
0801 1400706787 46.0578
0802 1400709228 46.4840
0803 1400711669 45.0651
0804 1400714111 45.6224
0805 1400716552 49.1215
0806 1400718994 47.6219
0807 1400721435 45.4822
0808 1400723876 46.2524
0809 1400726318 45.4347
0810 1400728759 45.6557
0811 1400731201 45.8414
0812 1400733642 45.7101
0813 1400736083 44.7239
0814 1400738525 44.7931
0815 1400740966 45.7150
0816 1400743408 45.0567
0817 1400745849 45.5751
0818 1400748291 45.7351
0819 1400750732 45.0194
0820 1400753173 44.8677
0821 1400755615 45.0259
0822 1400758056 44.1484
0823 1400760498 44.7475
0824 1400762939 44.7812
0825 1400765380 44.3405
0826 1400767822 46.8268
0827 1400770263 46.3688
0828 1400772705 44.2899
0829 1400775146 44.7752
0830 1400777587 47.5541
0831 1400780029 45.1290
0832 1400782470 44.1789
0833 1400784912 44.4399
0834 1400787353 45.3655
0835 1400789794 44.0999
0836 1400792236 44.4967
0837 1400794677 43.7612
0838 1400797119 43.1145
0839 1400799560 43.4741
0840 1400802001 43.5414
0841 1400804443 43.2294
0842 1400806884 43.4688
0843 1400809326 43.4248
0844 1400811767 42.7396
0845 1400814208 43.6559
0846 1400816650 42.9937
0847 1400819091 43.4225
0848 1400821533 48.3757
0849 1400823974 52.5023
0850 1400826416 42.4216
0851 1400828857 42.5820
0852 1400831298 42.8163
0853 1400833740 42.1162
0854 1400836181 42.5490
0855 1400838623 44.1973
0856 1400841064 41.6509
0857 1400843505 41.4455
0858 1400845947 41.7853
0859 1400848388 41.0216
0860 1400850830 41.0408
0861 1400853271 41.4148
0862 1400855712 41.0374
0863 1400858154 41.2923
0864 1400860595 40.4835
0865 1400863037 40.5252
0866 1400865478 40.2756
0867 1400867919 41.5094
0868 1400870361 40.1735
0869 1400872802 39.4182
0870 1400875244 40.4159
0871 1400877685 39.4352
0872 1400880126 39.4338
0873 1400882568 38.8963
0874 1400885009 39.8380
0875 1400887451 42.6221
0876 1400889892 40.6308
0877 1400892333 39.1716
0878 1400894775 38.1335
0879 1400897216 38.2668
0880 1400899658 39.9668
0881 1400902099 37.2609
0882 1400904541 36.7650
0883 1400906982 37.2426
0884 1400909423 36.5433
0885 1400911865 36.3800
0886 1400914306 36.5654
0887 1400916748 35.9005
0888 1400919189 35.8039
0889 1400921630 35.9689
0890 1400924072 35.3289
0891 1400926513 35.3205
0892 1400928955 35.3606
0893 1400931396 35.3286
0894 1400933837 34.4605
0895 1400936279 33.9883
0896 1400938720 34.1401
0897 1400941162 33.9992
0898 1400943603 34.2668
0899 1400946044 33.6374
0900 1400948486 33.4816
0901 1400950927 33.8574
0902 1400953369 33.0570
0903 1400955810 32.2117
0904 1400958251 32.7690
0905 1400960693 33.2383
0906 1400963134 31.9016
0907 1400965576 32.0922
0908 1400968017 31.3449
0909 1400970458 30.6710
0910 1400972900 30.7186
0911 1400975341 30.8095
0912 1400977783 30.2353
0913 1400980224 29.6558
0914 1400982666 29.3627
0915 1400985107 28.8307
0916 1400987548 29.0639
0917 1400989990 28.3867
0918 1400992431 28.4095
0919 1400994873 28.1644
0920 1400997314 28.1246
0921 1400999755 27.6928
0922 1401002197 27.2632
0923 1401004638 27.4647
0924 1401007080 26.8161
0925 1401009521 26.6278
0926 1401011962 26.9923
0927 1401014404 26.3151
0928 1401016845 25.6604
0929 1401019287 26.2665
0930 1401021728 26.0710
0931 1401024169 25.2545
0932 1401026611 25.4184
0933 1401029052 24.6764
0934 1401031494 24.1835
0935 1401033935 23.8514
0936 1401036376 23.3231
0937 1401038818 23.3103
0938 1401041259 23.2268
0939 1401043701 23.2964
0940 1401046142 22.5731
0941 1401048583 22.2063
0942 1401051025 22.1021
0943 1401053466 22.0328
0944 1401055908 21.7934
0945 1401058349 21.5111
0946 1401060791 20.9315
0947 1401063232 20.7661
0948 1401065673 20.8916
0949 1401068115 20.3037
0950 1401070556 20.2072
0951 1401072998 20.1592
0952 1401075439 19.7869
0953 1401077880 19.4456
0954 1401080322 20.0376
0955 1401082763 19.2763
0956 1401085205 18.8984
0957 1401087646 20.1671
0958 1401090087 18.6555
0959 1401092529 17.9136
0960 1401094970 17.7834
0961 1401097412 17.6420
0962 1401099853 17.3120
0963 1401102294 17.2684
0964 1401104736 16.7699
0965 1401107177 16.5544
0966 1401109619 16.4899
0967 1401112060 16.1470
0968 1401114501 15.9802
0969 1401116943 15.8110
0970 1401119384 15.6632
0971 1401121826 15.4091
0972 1401124267 15.3201
0973 1401126708 15.3004
0974 1401129150 14.9488
0975 1401131591 14.9340
0976 1401134033 15.0743
0977 1401136474 14.1523
0978 1401138916 13.8147
0979 1401141357 14.0393
0980 1401143798 13.5932
0981 1401146240 13.4190
0982 1401148681 13.4442
0983 1401151123 13.2185
0984 1401153564 13.0066
0985 1401156005 12.8475
0986 1401158447 12.6379
0987 1401160888 12.5711
0988 1401163330 12.4747
0989 1401165771 12.1617
0990 1401168212 11.8582
0991 1401170654 11.7804
0992 1401173095 11.8230
0993 1401175537 11.6431
0994 1401177978 11.5074
0995 1401180419 11.3144
0996 1401182861 11.2125
0997 1401185302 11.2404
0998 1401187744 11.5432
0999 1401190185 11.0472
1000 1401192626 10.8267
1001 1401195068 10.7992
1002 1401197509 12.9016
1003 1401199951 12.7800
1004 1401202392 10.9361
1005 1401204833 10.4470
1006 1401207275 10.2101
1007 1401209716 10.1980
1008 1401212158 10.1952
1009 1401214599 10.1436
1010 1401217041 9.8486
1011 1401219482 9.6923
1012 1401221923 9.7114
1013 1401224365 9.7046
1014 1401226806 9.5885
1015 1401229248 9.4548
1016 1401231689 9.5594
1017 1401234130 9.5081
1018 1401236572 9.3369
1019 1401239013 9.4111
1020 1401241455 9.3414
1021 1401243896 9.3465
1022 1401246337 9.3173
1023 1401248779 9.5424
