# File: 20-06-08T225505.ast
# NOTEA     = None Attached.  RTLSDR Dongle Test
# NOTEB     = Spectral Integration
# OBSERVER  = Science Aficionado
# DEVICE    = rtlsdr=0
# DATADIR   = ../data/
# SITE      = None Attached.  RTLSDR Dongle Test
# CITY      = Green Bank
# REGION    = West Virginia
# COUNTRY   = US
# TELTYPE   = Bubble Wrap  Horn
# FRAME     = TOPO
# GAIN1     = 49.0
# GAIN2     = 11.0
# GAIN3     = 11.0
# GAIN4     = 0.0
# Count     = 10000
# CenterFreq= 1400000000.0
# Bandwidth = 2500000.0
# Duration  = 83.895555
# DeltaX    = 5859.375
# TSYS      = 200.0
# TRX       = 100.0
# TRMS      = 2.0
# TINT      = 1.0
# KPERC     = 100.0
# GAINFACT  = 1.0
# BUNIT     = Counts
# NCHAN     = 2048
# NSPEC     = 1
# NTIME     = 0
# NSAMPLES  = 0
# EPEAK     = 4.10875183718
# ERMS      = 0.995973393526
# EMJD      = 58568.808999981004 
# REFCHAN   = 1024.0
# REFSAMPL  = 256.0
# NAVE      = 100
# NMEDIAN   = 1024
# Fft_rate  = 5000
# UTC       = 2020-06-08 22:55:05.920767
# SECONDS   =       0.0000000000 
# LST       = 10:46:50.760
# AZ        = 180.0
# EL        = 90.0
# TELLON    = -79:50:22.920
# TELLAT    = +38:25:59.160
# RA        = 10:44:32.630
# DEC       = +38:38:38.000
# GALLON    = 181:18:46.60
# GALLAT    = +61:09:55.70
# ALT_SUN   = +18:28:42.3
# AZ_SUN    = +285:04:39.9
# ETAA      = 0.8
# ETAB      = 0.99
# POLANGLE  = 0.0
# TELSIZEAM = 1.0
# TELSIZEBM = 1.0
# AST_VERS  = 05.01
0000 1398750610 11.6503
0001 1398751831 11.6449
0002 1398753051 11.6768
0003 1398754272 11.7552
0004 1398755493 11.7093
0005 1398756713 11.8738
0006 1398757934 11.8434
0007 1398759155 11.8736
0008 1398760375 11.7162
0009 1398761596 11.9524
0010 1398762817 12.1134
0011 1398764038 11.6920
0012 1398765258 11.7891
0013 1398766479 11.7628
0014 1398767700 11.8382
0015 1398768920 11.8909
0016 1398770141 11.7421
0017 1398771362 11.8655
0018 1398772583 11.9394
0019 1398773803 12.1814
0020 1398775024 11.9244
0021 1398776245 11.9659
0022 1398777465 11.9348
0023 1398778686 12.0584
0024 1398779907 12.2008
0025 1398781127 12.3270
0026 1398782348 12.0742
0027 1398783569 11.9868
0028 1398784790 12.3890
0029 1398786010 12.6919
0030 1398787231 12.3965
0031 1398788452 12.3479
0032 1398789672 12.2925
0033 1398790893 12.3124
0034 1398792114 12.3377
0035 1398793334 12.4450
0036 1398794555 12.4878
0037 1398795776 12.5991
0038 1398796997 17.6521
0039 1398798217 19.5217
0040 1398799438 13.0050
0041 1398800659 13.3603
0042 1398801879 12.9366
0043 1398803100 12.8277
0044 1398804321 12.8348
0045 1398805541 12.8125
0046 1398806762 12.9695
0047 1398807983 12.9397
0048 1398809204 13.1045
0049 1398810424 13.1713
0050 1398811645 13.2778
0051 1398812866 13.4031
0052 1398814086 13.4028
0053 1398815307 13.3279
0054 1398816528 13.3544
0055 1398817749 13.3536
0056 1398818969 13.5467
0057 1398820190 13.6608
0058 1398821411 13.6563
0059 1398822631 13.7714
0060 1398823852 13.6213
0061 1398825073 13.8041
0062 1398826293 13.9348
0063 1398827514 14.1163
0064 1398828735 14.1430
0065 1398829956 14.1783
0066 1398831176 14.2716
0067 1398832397 14.2201
0068 1398833618 14.3997
0069 1398834838 14.8578
0070 1398836059 14.5931
0071 1398837280 14.5674
0072 1398838500 14.7235
0073 1398839721 14.8190
0074 1398840942 14.9104
0075 1398842163 14.9124
0076 1398843383 15.0985
0077 1398844604 15.1573
0078 1398845825 15.2558
0079 1398847045 15.3885
0080 1398848266 15.6475
0081 1398849487 15.9288
0082 1398850708 15.6144
0083 1398851928 15.7704
0084 1398853149 15.6074
0085 1398854370 15.7195
0086 1398855590 16.0485
0087 1398856811 16.2004
0088 1398858032 16.4226
0089 1398859252 16.2397
0090 1398860473 16.2967
0091 1398861694 16.4671
0092 1398862915 16.6564
0093 1398864135 16.7428
0094 1398865356 16.8384
0095 1398866577 16.8720
0096 1398867797 17.0464
0097 1398869018 17.0289
0098 1398870239 17.4297
0099 1398871459 17.5485
0100 1398872680 17.5072
0101 1398873901 17.5804
0102 1398875122 17.7030
0103 1398876342 17.9170
0104 1398877563 17.9587
0105 1398878784 18.1773
0106 1398880004 18.1682
0107 1398881225 18.2733
0108 1398882446 18.3787
0109 1398883666 18.4848
0110 1398884887 18.7306
0111 1398886108 19.1723
0112 1398887329 19.6842
0113 1398888549 18.9779
0114 1398889770 19.1580
0115 1398890991 19.1520
0116 1398892211 19.2756
0117 1398893432 19.6441
0118 1398894653 20.3735
0119 1398895874 20.8727
0120 1398897094 20.1372
0121 1398898315 20.1603
0122 1398899536 20.3150
0123 1398900756 20.2421
0124 1398901977 20.5511
0125 1398903198 20.7342
0126 1398904418 20.8623
0127 1398905639 20.9970
0128 1398906860 20.9371
0129 1398908081 21.1620
0130 1398909301 21.3305
0131 1398910522 21.7346
0132 1398911743 21.4992
0133 1398912963 22.3395
0134 1398914184 22.0611
0135 1398915405 21.9202
0136 1398916625 21.9683
0137 1398917846 22.2130
0138 1398919067 22.5275
0139 1398920288 22.4586
0140 1398921508 22.6701
0141 1398922729 22.6188
0142 1398923950 22.6843
0143 1398925170 23.2494
0144 1398926391 23.8720
0145 1398927612 23.3580
0146 1398928833 23.5615
0147 1398930053 23.6672
0148 1398931274 23.8509
0149 1398932495 23.8360
0150 1398933715 24.0306
0151 1398934936 24.2564
0152 1398936157 24.5274
0153 1398937377 24.6300
0154 1398938598 24.6314
0155 1398939819 24.8905
0156 1398941040 25.4624
0157 1398942260 25.2006
0158 1398943481 25.1559
0159 1398944702 25.2861
0160 1398945922 25.5748
0161 1398947143 25.8378
0162 1398948364 25.8810
0163 1398949584 26.1157
0164 1398950805 26.2335
0165 1398952026 26.2848
0166 1398953247 26.6085
0167 1398954467 26.4150
0168 1398955688 27.3462
0169 1398956909 27.1352
0170 1398958129 27.1810
0171 1398959350 27.3015
0172 1398960571 27.3553
0173 1398961791 27.5113
0174 1398963012 27.9291
0175 1398964233 28.0807
0176 1398965454 27.9877
0177 1398966674 28.0953
0178 1398967895 28.3504
0179 1398969116 28.3905
0180 1398970336 29.0151
0181 1398971557 29.2919
0182 1398972778 29.1262
0183 1398973999 28.9494
0184 1398975219 28.9284
0185 1398976440 29.4990
0186 1398977661 29.6978
0187 1398978881 30.0495
0188 1398980102 30.0443
0189 1398981323 29.7907
0190 1398982543 30.1316
0191 1398983764 30.0491
0192 1398984985 30.3754
0193 1398986206 30.7915
0194 1398987426 30.8446
0195 1398988647 31.1067
0196 1398989868 31.0729
0197 1398991088 31.2520
0198 1398992309 31.1940
0199 1398993530 31.7954
0200 1398994750 31.6576
0201 1398995971 31.7497
0202 1398997192 32.2492
0203 1398998413 32.2809
0204 1398999633 32.2319
0205 1399000854 32.5099
0206 1399002075 33.1681
0207 1399003295 32.8719
0208 1399004516 33.0533
0209 1399005737 33.8910
0210 1399006958 34.3632
0211 1399008178 34.7706
0212 1399009399 34.6155
0213 1399010620 34.0489
0214 1399011840 34.1908
0215 1399013061 33.8891
0216 1399014282 34.0681
0217 1399015502 34.7870
0218 1399016723 36.6979
0219 1399017944 35.2058
0220 1399019165 34.2653
0221 1399020385 35.1716
0222 1399021606 34.9289
0223 1399022827 35.2070
0224 1399024047 35.5126
0225 1399025268 35.5564
0226 1399026489 35.8769
0227 1399027709 35.8974
0228 1399028930 35.9885
0229 1399030151 36.1241
0230 1399031372 36.3496
0231 1399032592 36.4912
0232 1399033813 36.5665
0233 1399035034 37.0836
0234 1399036254 36.8977
0235 1399037475 37.2991
0236 1399038696 37.4019
0237 1399039916 38.1135
0238 1399041137 37.7113
0239 1399042358 37.5785
0240 1399043579 38.1045
0241 1399044799 37.9189
0242 1399046020 37.8847
0243 1399047241 38.1301
0244 1399048461 38.2029
0245 1399049682 38.7025
0246 1399050903 38.6066
0247 1399052124 38.7946
0248 1399053344 39.1988
0249 1399054565 38.9840
0250 1399055786 39.9216
0251 1399057006 39.3555
0252 1399058227 39.2031
0253 1399059448 39.6177
0254 1399060668 40.1821
0255 1399061889 40.3461
0256 1399063110 40.0104
0257 1399064331 40.2138
0258 1399065551 40.1490
0259 1399066772 40.3412
0260 1399067993 40.7156
0261 1399069213 41.7217
0262 1399070434 41.0175
0263 1399071655 40.9486
0264 1399072875 41.3028
0265 1399074096 41.5611
0266 1399075317 41.4916
0267 1399076538 41.9569
0268 1399077758 43.2714
0269 1399078979 41.8603
0270 1399080200 41.8163
0271 1399081420 42.4291
0272 1399082641 42.8925
0273 1399083862 42.6096
0274 1399085083 42.9002
0275 1399086303 42.1897
0276 1399087524 42.8919
0277 1399088745 43.0155
0278 1399089965 43.0583
0279 1399091186 43.1568
0280 1399092407 43.3289
0281 1399093627 43.8270
0282 1399094848 43.6972
0283 1399096069 43.5662
0284 1399097290 43.6059
0285 1399098510 44.1566
0286 1399099731 44.5243
0287 1399100952 44.3647
0288 1399102172 44.2982
0289 1399103393 44.8029
0290 1399104614 44.8910
0291 1399105834 44.6673
0292 1399107055 44.8190
0293 1399108276 45.0122
0294 1399109497 44.8876
0295 1399110717 45.7091
0296 1399111938 45.4765
0297 1399113159 45.5737
0298 1399114379 44.8177
0299 1399115600 45.5675
0300 1399116821 45.6497
0301 1399118041 45.7736
0302 1399119262 46.2067
0303 1399120483 46.1952
0304 1399121704 46.3542
0305 1399122924 46.1773
0306 1399124145 46.1611
0307 1399125366 46.2254
0308 1399126586 46.5952
0309 1399127807 46.9520
0310 1399129028 47.7345
0311 1399130249 47.9571
0312 1399131469 47.1989
0313 1399132690 47.1231
0314 1399133911 47.5601
0315 1399135131 47.6382
0316 1399136352 47.7369
0317 1399137573 48.5588
0318 1399138793 49.0329
0319 1399140014 48.2585
0320 1399141235 47.8694
0321 1399142456 47.9997
0322 1399143676 47.9057
0323 1399144897 48.0215
0324 1399146118 48.5378
0325 1399147338 48.7233
0326 1399148559 48.5129
0327 1399149780 48.2285
0328 1399151000 48.9002
0329 1399152221 49.2842
0330 1399153442 49.1264
0331 1399154663 48.8087
0332 1399155883 49.1326
0333 1399157104 49.5938
0334 1399158325 49.3111
0335 1399159545 49.9728
0336 1399160766 49.3366
0337 1399161987 49.9438
0338 1399163208 49.8665
0339 1399164428 49.9922
0340 1399165649 49.5280
0341 1399166870 50.0819
0342 1399168090 50.1923
0343 1399169311 50.3744
0344 1399170532 50.1027
0345 1399171752 50.3875
0346 1399172973 50.6346
0347 1399174194 50.5214
0348 1399175415 50.4061
0349 1399176635 50.5504
0350 1399177856 50.9167
0351 1399179077 50.5973
0352 1399180297 50.6637
0353 1399181518 51.0677
0354 1399182739 51.2317
0355 1399183959 50.8987
0356 1399185180 50.9021
0357 1399186401 50.9400
0358 1399187622 51.2483
0359 1399188842 51.4347
0360 1399190063 53.8565
0361 1399191284 52.4865
0362 1399192504 51.6850
0363 1399193725 51.1135
0364 1399194946 51.5085
0365 1399196166 51.4240
0366 1399197387 52.2605
0367 1399198608 54.0423
0368 1399199829 52.2730
0369 1399201049 52.0411
0370 1399202270 52.1580
0371 1399203491 52.1253
0372 1399204711 52.3035
0373 1399205932 52.9212
0374 1399207153 52.7859
0375 1399208374 52.3255
0376 1399209594 52.5725
0377 1399210815 52.6094
0378 1399212036 52.1188
0379 1399213256 52.4970
0380 1399214477 52.9697
0381 1399215698 52.6339
0382 1399216918 52.6643
0383 1399218139 52.5045
0384 1399219360 53.0850
0385 1399220581 53.1252
0386 1399221801 53.7668
0387 1399223022 53.0140
0388 1399224243 53.0972
0389 1399225463 52.7394
0390 1399226684 53.2331
0391 1399227905 52.7571
0392 1399229125 53.5229
0393 1399230346 52.9480
0394 1399231567 53.2237
0395 1399232788 53.6233
0396 1399234008 53.5589
0397 1399235229 53.6955
0398 1399236450 53.2143
0399 1399237670 53.9043
0400 1399238891 53.5835
0401 1399240112 53.0031
0402 1399241333 53.4477
0403 1399242553 53.6507
0404 1399243774 55.0288
0405 1399244995 55.6987
0406 1399246215 53.7623
0407 1399247436 53.3121
0408 1399248657 54.0577
0409 1399249877 53.4651
0410 1399251098 53.7956
0411 1399252319 53.9204
0412 1399253540 53.8408
0413 1399254760 53.7645
0414 1399255981 54.0127
0415 1399257202 53.8545
0416 1399258422 54.9607
0417 1399259643 55.3292
0418 1399260864 54.0615
0419 1399262084 54.4004
0420 1399263305 53.9869
0421 1399264526 54.4547
0422 1399265747 54.2360
0423 1399266967 53.8983
0424 1399268188 54.5713
0425 1399269409 54.2867
0426 1399270629 54.5033
0427 1399271850 54.4335
0428 1399273071 54.5371
0429 1399274291 54.5770
0430 1399275512 54.3639
0431 1399276733 54.2494
0432 1399277954 54.9614
0433 1399279174 53.9012
0434 1399280395 53.5574
0435 1399281616 54.4743
0436 1399282836 55.2382
0437 1399284057 54.7827
0438 1399285278 54.0917
0439 1399286499 54.6266
0440 1399287719 54.9464
0441 1399288940 54.4683
0442 1399290161 54.2605
0443 1399291381 54.5602
0444 1399292602 55.1383
0445 1399293823 54.8318
0446 1399295043 55.0774
0447 1399296264 54.7012
0448 1399297485 55.9930
0449 1399298706 55.7374
0450 1399299926 54.8792
0451 1399301147 54.8784
0452 1399302368 55.0249
0453 1399303588 55.4044
0454 1399304809 55.5021
0455 1399306030 54.9242
0456 1399307250 54.9922
0457 1399308471 54.6875
0458 1399309692 54.5559
0459 1399310913 54.7546
0460 1399312133 56.6635
0461 1399313354 55.5302
0462 1399314575 55.4923
0463 1399315795 54.9560
0464 1399317016 55.1410
0465 1399318237 55.0813
0466 1399319458 56.0883
0467 1399320678 57.4283
0468 1399321899 55.5487
0469 1399323120 55.3044
0470 1399324340 54.2416
0471 1399325561 54.6907
0472 1399326782 54.9935
0473 1399328002 55.4888
0474 1399329223 55.6435
0475 1399330444 55.2488
0476 1399331665 54.9866
0477 1399332885 54.7777
0478 1399334106 55.1605
0479 1399335327 55.5954
0480 1399336547 55.1894
0481 1399337768 55.2948
0482 1399338989 55.2111
0483 1399340209 55.3604
0484 1399341430 55.7255
0485 1399342651 55.6489
0486 1399343872 55.3434
0487 1399345092 54.7173
0488 1399346313 55.0282
0489 1399347534 54.3369
0490 1399348754 55.2829
0491 1399349975 55.2813
0492 1399351196 55.4431
0493 1399352416 55.0024
0494 1399353637 55.0476
0495 1399354858 54.8726
0496 1399356079 54.4525
0497 1399357299 55.0772
0498 1399358520 55.2419
0499 1399359741 55.1382
0500 1399360961 55.5322
0501 1399362182 55.8951
0502 1399363403 54.8733
0503 1399364624 55.2944
0504 1399365844 55.0084
0505 1399367065 55.0140
0506 1399368286 54.9556
0507 1399369506 55.0743
0508 1399370727 55.2015
0509 1399371948 56.1203
0510 1399373168 56.0319
0511 1399374389 55.2690
0512 1399375610 54.7487
0513 1399376831 55.3159
0514 1399378051 54.8234
0515 1399379272 55.5253
0516 1399380493 55.6738
0517 1399381713 54.6655
0518 1399382934 54.5686
0519 1399384155 54.5469
0520 1399385375 54.6427
0521 1399386596 54.4345
0522 1399387817 54.8159
0523 1399389038 55.3180
0524 1399390258 55.9399
0525 1399391479 56.1499
0526 1399392700 56.3195
0527 1399393920 56.2822
0528 1399395141 57.0401
0529 1399396362 56.6231
0530 1399397583 55.7914
0531 1399398803 55.2354
0532 1399400024 54.3552
0533 1399401245 54.4885
0534 1399402465 55.1580
0535 1399403686 54.6537
0536 1399404907 54.8215
0537 1399406127 54.6153
0538 1399407348 54.4425
0539 1399408569 54.7569
0540 1399409790 54.8783
0541 1399411010 54.9660
0542 1399412231 54.9889
0543 1399413452 55.2146
0544 1399414672 54.1987
0545 1399415893 54.6187
0546 1399417114 55.2153
0547 1399418334 54.6400
0548 1399419555 54.4926
0549 1399420776 54.5592
0550 1399421997 54.5008
0551 1399423217 54.7487
0552 1399424438 54.5924
0553 1399425659 54.8997
0554 1399426879 54.4646
0555 1399428100 54.1400
0556 1399429321 54.3259
0557 1399430541 54.2879
0558 1399431762 54.4919
0559 1399432983 55.2943
0560 1399434204 55.0649
0561 1399435424 54.3473
0562 1399436645 54.4541
0563 1399437866 53.9966
0564 1399439086 54.3238
0565 1399440307 54.6532
0566 1399441528 56.2831
0567 1399442749 54.4760
0568 1399443969 54.7831
0569 1399445190 54.7104
0570 1399446411 54.8632
0571 1399447631 55.1702
0572 1399448852 55.1533
0573 1399450073 55.7361
0574 1399451293 54.7392
0575 1399452514 54.6223
0576 1399453735 54.7129
0577 1399454956 54.7272
0578 1399456176 54.6378
0579 1399457397 54.4963
0580 1399458618 54.3115
0581 1399459838 54.7979
0582 1399461059 54.3486
0583 1399462280 54.0265
0584 1399463500 54.6250
0585 1399464721 54.5356
0586 1399465942 54.8334
0587 1399467163 55.9570
0588 1399468383 54.5984
0589 1399469604 54.1220
0590 1399470825 54.6917
0591 1399472045 54.7422
0592 1399473266 54.5408
0593 1399474487 54.1484
0594 1399475708 54.1911
0595 1399476928 54.0079
0596 1399478149 54.4560
0597 1399479370 54.7044
0598 1399480590 54.2388
0599 1399481811 54.3036
0600 1399483032 54.6591
0601 1399484252 54.7734
0602 1399485473 54.3837
0603 1399486694 54.6390
0604 1399487915 54.1979
0605 1399489135 53.8640
0606 1399490356 54.4857
0607 1399491577 54.5881
0608 1399492797 54.6405
0609 1399494018 55.0083
0610 1399495239 55.0727
0611 1399496459 53.6074
0612 1399497680 54.1730
0613 1399498901 55.2260
0614 1399500122 54.8074
0615 1399501342 54.8935
0616 1399502563 57.0956
0617 1399503784 56.2468
0618 1399505004 55.7936
0619 1399506225 55.0421
0620 1399507446 54.6666
0621 1399508666 54.5633
0622 1399509887 54.7155
0623 1399511108 54.9187
0624 1399512329 54.5959
0625 1399513549 53.9787
0626 1399514770 54.1133
0627 1399515991 54.3477
0628 1399517211 54.3325
0629 1399518432 53.9485
0630 1399519653 54.0941
0631 1399520874 54.2104
0632 1399522094 54.0676
0633 1399523315 54.6371
0634 1399524536 55.5468
0635 1399525756 55.1735
0636 1399526977 54.4340
0637 1399528198 54.0422
0638 1399529418 54.0987
0639 1399530639 53.6717
0640 1399531860 54.6219
0641 1399533081 55.1230
0642 1399534301 54.3884
0643 1399535522 54.5243
0644 1399536743 54.3897
0645 1399537963 53.8993
0646 1399539184 55.2494
0647 1399540405 55.2236
0648 1399541625 54.7080
0649 1399542846 54.1903
0650 1399544067 54.7152
0651 1399545288 54.5008
0652 1399546508 54.4826
0653 1399547729 55.3765
0654 1399548950 53.9304
0655 1399550170 53.9271
0656 1399551391 54.7033
0657 1399552612 55.0071
0658 1399553833 54.8767
0659 1399555053 55.5292
0660 1399556274 55.2834
0661 1399557495 55.0517
0662 1399558715 54.6033
0663 1399559936 54.9801
0664 1399561157 54.7892
0665 1399562377 57.9404
0666 1399563598 58.4024
0667 1399564819 54.5652
0668 1399566040 54.9206
0669 1399567260 55.0126
0670 1399568481 54.6816
0671 1399569702 55.0879
0672 1399570922 55.2112
0673 1399572143 54.9600
0674 1399573364 54.6723
0675 1399574584 54.7773
0676 1399575805 55.5663
0677 1399577026 54.9478
0678 1399578247 55.2667
0679 1399579467 54.4049
0680 1399580688 54.7252
0681 1399581909 54.5635
0682 1399583129 54.8776
0683 1399584350 55.0121
0684 1399585571 55.2190
0685 1399586791 54.9331
0686 1399588012 54.5533
0687 1399589233 55.1736
0688 1399590454 54.9465
0689 1399591674 54.6933
0690 1399592895 56.0579
0691 1399594116 55.4370
0692 1399595336 54.5137
0693 1399596557 54.9693
0694 1399597778 55.2789
0695 1399598999 54.8544
0696 1399600219 56.0157
0697 1399601440 55.5915
0698 1399602661 55.1586
0699 1399603881 55.4896
0700 1399605102 55.5635
0701 1399606323 55.3118
0702 1399607543 55.2211
0703 1399608764 55.2773
0704 1399609985 54.9992
0705 1399611206 55.6128
0706 1399612426 55.5749
0707 1399613647 55.0390
0708 1399614868 56.1347
0709 1399616088 56.6396
0710 1399617309 55.7989
0711 1399618530 55.5073
0712 1399619750 55.8954
0713 1399620971 55.1439
0714 1399622192 55.5790
0715 1399623413 57.7833
0716 1399624633 57.0015
0717 1399625854 55.7955
0718 1399627075 55.7764
0719 1399628295 56.1007
0720 1399629516 56.0109
0721 1399630737 56.5766
0722 1399631958 56.3720
0723 1399633178 56.0518
0724 1399634399 55.9626
0725 1399635620 55.9067
0726 1399636840 56.3027
0727 1399638061 57.0733
0728 1399639282 56.8463
0729 1399640502 56.5565
0730 1399641723 56.3225
0731 1399642944 55.7555
0732 1399644165 56.3215
0733 1399645385 56.3573
0734 1399646606 56.9996
0735 1399647827 56.2700
0736 1399649047 56.3281
0737 1399650268 56.2260
0738 1399651489 56.4500
0739 1399652709 56.3263
0740 1399653930 56.9868
0741 1399655151 56.8609
0742 1399656372 57.0928
0743 1399657592 56.9512
0744 1399658813 56.7547
0745 1399660034 56.2564
0746 1399661254 56.9206
0747 1399662475 56.5754
0748 1399663696 56.6847
0749 1399664916 56.2530
0750 1399666137 56.5065
0751 1399667358 56.3846
0752 1399668579 57.9499
0753 1399669799 58.2400
0754 1399671020 57.2570
0755 1399672241 57.0262
0756 1399673461 57.1757
0757 1399674682 57.6418
0758 1399675903 58.5939
0759 1399677124 58.2476
0760 1399678344 57.9689
0761 1399679565 57.0856
0762 1399680786 58.5557
0763 1399682006 57.8784
0764 1399683227 57.7564
0765 1399684448 60.4033
0766 1399685668 57.9687
0767 1399686889 57.8042
0768 1399688110 57.5797
0769 1399689331 58.3544
0770 1399690551 57.8578
0771 1399691772 59.2402
0772 1399692993 58.2873
0773 1399694213 58.2036
0774 1399695434 57.8395
0775 1399696655 57.6096
0776 1399697875 58.0558
0777 1399699096 58.5366
0778 1399700317 58.8770
0779 1399701538 58.3002
0780 1399702758 58.3789
0781 1399703979 58.3904
0782 1399705200 57.4621
0783 1399706420 58.0971
0784 1399707641 59.0554
0785 1399708862 58.6050
0786 1399710083 58.6077
0787 1399711303 58.5658
0788 1399712524 58.1766
0789 1399713745 58.5657
0790 1399714965 58.5172
0791 1399716186 58.3032
0792 1399717407 58.3970
0793 1399718627 61.3014
0794 1399719848 60.3551
0795 1399721069 59.3677
0796 1399722290 59.3975
0797 1399723510 59.2873
0798 1399724731 59.1941
0799 1399725952 60.0762
0800 1399727172 58.8627
0801 1399728393 59.8184
0802 1399729614 60.0597
0803 1399730834 59.5312
0804 1399732055 59.4657
0805 1399733276 59.2499
0806 1399734497 59.2344
0807 1399735717 60.2065
0808 1399736938 60.8135
0809 1399738159 59.7339
0810 1399739379 59.6820
0811 1399740600 59.4276
0812 1399741821 59.4419
0813 1399743041 59.6084
0814 1399744262 61.4479
0815 1399745483 62.6539
0816 1399746704 59.8772
0817 1399747924 59.7134
0818 1399749145 60.2468
0819 1399750366 59.6630
0820 1399751586 60.6233
0821 1399752807 61.1164
0822 1399754028 60.8124
0823 1399755249 60.2127
0824 1399756469 60.8223
0825 1399757690 61.0120
0826 1399758911 60.6943
0827 1399760131 60.2183
0828 1399761352 60.4177
0829 1399762573 60.7842
0830 1399763793 60.7860
0831 1399765014 60.4277
0832 1399766235 61.4516
0833 1399767456 62.5906
0834 1399768676 61.1854
0835 1399769897 61.4299
0836 1399771118 61.4461
0837 1399772338 60.6175
0838 1399773559 61.6549
0839 1399774780 61.7406
0840 1399776000 61.2027
0841 1399777221 61.4970
0842 1399778442 61.1498
0843 1399779663 62.0327
0844 1399780883 61.1979
0845 1399782104 61.6073
0846 1399783325 61.9423
0847 1399784545 61.7616
0848 1399785766 61.0424
0849 1399786987 61.3696
0850 1399788208 61.9445
0851 1399789428 61.9437
0852 1399790649 62.9683
0853 1399791870 66.4238
0854 1399793090 64.5738
0855 1399794311 61.7287
0856 1399795532 61.5937
0857 1399796752 62.4402
0858 1399797973 62.5433
0859 1399799194 62.7370
0860 1399800415 63.1956
0861 1399801635 62.8747
0862 1399802856 61.9806
0863 1399804077 62.4133
0864 1399805297 64.2378
0865 1399806518 63.9003
0866 1399807739 63.4922
0867 1399808959 62.4874
0868 1399810180 63.0332
0869 1399811401 62.3737
0870 1399812622 63.7454
0871 1399813842 63.6809
0872 1399815063 63.3119
0873 1399816284 62.6808
0874 1399817504 62.7956
0875 1399818725 63.2154
0876 1399819946 64.2320
0877 1399821166 63.1958
0878 1399822387 62.9854
0879 1399823608 63.1386
0880 1399824829 62.8050
0881 1399826049 63.6354
0882 1399827270 63.3052
0883 1399828491 64.8625
0884 1399829711 64.2841
0885 1399830932 64.3309
0886 1399832153 64.0581
0887 1399833374 64.2765
0888 1399834594 63.6628
0889 1399835815 64.8763
0890 1399837036 64.3229
0891 1399838256 64.7742
0892 1399839477 64.5383
0893 1399840698 64.4025
0894 1399841918 64.8970
0895 1399843139 65.6300
0896 1399844360 65.5227
0897 1399845581 65.5248
0898 1399846801 64.1888
0899 1399848022 64.7149
0900 1399849243 65.2053
0901 1399850463 65.0028
0902 1399851684 64.3460
0903 1399852905 64.8825
0904 1399854125 64.6469
0905 1399855346 64.6009
0906 1399856567 65.1609
0907 1399857788 67.5575
0908 1399859008 66.6726
0909 1399860229 64.6910
0910 1399861450 65.5551
0911 1399862670 65.1951
0912 1399863891 65.1624
0913 1399865112 65.5632
0914 1399866333 67.8111
0915 1399867553 67.0666
0916 1399868774 64.3377
0917 1399869995 64.5151
0918 1399871215 65.7805
0919 1399872436 65.4214
0920 1399873657 65.7600
0921 1399874877 64.9083
0922 1399876098 65.7402
0923 1399877319 65.7477
0924 1399878540 65.7447
0925 1399879760 65.5240
0926 1399880981 66.2328
0927 1399882202 66.6841
0928 1399883422 66.1774
0929 1399884643 65.7692
0930 1399885864 65.7020
0931 1399887084 66.7303
0932 1399888305 66.6215
0933 1399889526 66.3089
0934 1399890747 65.8477
0935 1399891967 65.9494
0936 1399893188 66.6030
0937 1399894409 67.3925
0938 1399895629 67.3318
0939 1399896850 70.4480
0940 1399898071 67.4602
0941 1399899291 66.0448
0942 1399900512 66.6948
0943 1399901733 66.3855
0944 1399902954 67.0964
0945 1399904174 66.9846
0946 1399905395 66.8796
0947 1399906616 66.6965
0948 1399907836 67.4355
0949 1399909057 66.8355
0950 1399910278 67.0776
0951 1399911499 67.5414
0952 1399912719 67.7139
0953 1399913940 68.3273
0954 1399915161 66.9253
0955 1399916381 66.8828
0956 1399917602 67.3336
0957 1399918823 68.6354
0958 1399920043 67.6419
0959 1399921264 66.7977
0960 1399922485 67.6790
0961 1399923706 67.9734
0962 1399924926 70.9842
0963 1399926147 70.4574
0964 1399927368 68.8596
0965 1399928588 67.8445
0966 1399929809 68.0083
0967 1399931030 68.2340
0968 1399932250 69.5081
0969 1399933471 68.7778
0970 1399934692 69.2478
0971 1399935913 68.8754
0972 1399937133 68.4642
0973 1399938354 68.9042
0974 1399939575 68.7518
0975 1399940795 68.1718
0976 1399942016 68.8745
0977 1399943237 69.7350
0978 1399944458 68.8817
0979 1399945678 68.0036
0980 1399946899 68.7311
0981 1399948120 69.8000
0982 1399949340 70.5615
0983 1399950561 69.2154
0984 1399951782 68.4538
0985 1399953002 69.1126
0986 1399954223 69.1918
0987 1399955444 69.0869
0988 1399956665 69.8232
0989 1399957885 71.1291
0990 1399959106 70.1527
0991 1399960327 68.8479
0992 1399961547 69.9383
0993 1399962768 70.3483
0994 1399963989 69.8194
0995 1399965209 69.9548
0996 1399966430 71.5143
0997 1399967651 70.2023
0998 1399968872 70.0511
0999 1399970092 70.5804
1000 1399971313 71.8411
1001 1399972534 74.2310
1002 1399973754 72.7327
1003 1399974975 71.9224
1004 1399976196 71.2490
1005 1399977416 71.7667
1006 1399978637 75.2627
1007 1399979858 107.8404
1008 1399981079 127.0137
1009 1399982299 77.2593
1010 1399983520 72.6625
1011 1399984741 100.8882
1012 1399985961 177.3641
1013 1399987182 98.1610
1014 1399988403 85.1348
1015 1399989624 73.7297
1016 1399990844 76.2312
1017 1399992065 80.8379
1018 1399993286 78.9347
1019 1399994506 80.0141
1020 1399995727 91.9293
1021 1399996948 1045.7642
1022 1399998168 1561.8745
1023 1399999389 146.9989
1024 1400000610 84.5500
1025 1400001831 91.0456
1026 1400003051 98.4065
1027 1400004272 89.2837
1028 1400005493 80.2929
1029 1400006713 78.1577
1030 1400007934 75.7457
1031 1400009155 75.4427
1032 1400010375 74.0229
1033 1400011596 73.5149
1034 1400012817 73.1098
1035 1400014038 89.0071
1036 1400015258 85.7315
1037 1400016479 72.0606
1038 1400017700 71.2422
1039 1400018920 71.5072
1040 1400020141 72.2252
1041 1400021362 72.9363
1042 1400022583 72.1838
1043 1400023803 72.6481
1044 1400025024 72.1134
1045 1400026245 70.6329
1046 1400027465 70.9860
1047 1400028686 71.2175
1048 1400029907 70.6410
1049 1400031127 70.2400
1050 1400032348 70.8335
1051 1400033569 70.3346
1052 1400034790 70.4726
1053 1400036010 70.7098
1054 1400037231 70.8869
1055 1400038452 70.9828
1056 1400039672 70.8547
1057 1400040893 70.3449
1058 1400042114 68.8293
1059 1400043334 69.0503
1060 1400044555 69.4330
1061 1400045776 69.8313
1062 1400046997 70.4937
1063 1400048217 71.8167
1064 1400049438 70.2577
1065 1400050659 68.8981
1066 1400051879 69.3307
1067 1400053100 68.9673
1068 1400054321 68.7158
1069 1400055541 69.3471
1070 1400056762 69.2727
1071 1400057983 68.2802
1072 1400059204 69.0918
1073 1400060424 68.8497
1074 1400061645 67.8420
1075 1400062866 68.7897
1076 1400064086 68.8723
1077 1400065307 68.2282
1078 1400066528 67.7525
1079 1400067749 67.5828
1080 1400068969 68.0268
1081 1400070190 68.1936
1082 1400071411 68.4527
1083 1400072631 67.0597
1084 1400073852 68.6824
1085 1400075073 67.8061
1086 1400076293 67.9222
1087 1400077514 67.6662
1088 1400078735 67.0190
1089 1400079956 67.7247
1090 1400081176 67.6502
1091 1400082397 67.1344
1092 1400083618 67.6217
1093 1400084838 69.7060
1094 1400086059 68.2416
1095 1400087280 66.6093
1096 1400088500 67.1089
1097 1400089721 67.2023
1098 1400090942 66.8494
1099 1400092163 67.0631
1100 1400093383 67.3849
1101 1400094604 67.4573
1102 1400095825 67.0965
1103 1400097045 67.5985
1104 1400098266 66.6358
1105 1400099487 66.9988
1106 1400100708 67.4157
1107 1400101928 66.9049
1108 1400103149 66.6646
1109 1400104370 66.3041
1110 1400105590 66.8369
1111 1400106811 66.7310
1112 1400108032 67.3866
1113 1400109252 69.0542
1114 1400110473 67.3894
1115 1400111694 66.6576
1116 1400112915 66.5000
1117 1400114135 66.1899
1118 1400115356 66.0304
1119 1400116577 66.7327
1120 1400117797 67.0904
1121 1400119018 66.0054
1122 1400120239 65.6903
1123 1400121459 65.4850
1124 1400122680 65.9844
1125 1400123901 66.7666
1126 1400125122 66.2607
1127 1400126342 65.9645
1128 1400127563 65.4214
1129 1400128784 65.1462
1130 1400130004 65.4049
1131 1400131225 65.9878
1132 1400132446 66.0937
1133 1400133666 65.2850
1134 1400134887 65.5791
1135 1400136108 65.1010
1136 1400137329 65.6804
1137 1400138549 65.0652
1138 1400139770 64.9894
1139 1400140991 66.1198
1140 1400142211 65.2650
1141 1400143432 64.6717
1142 1400144653 65.3906
1143 1400145874 65.9216
1144 1400147094 66.1150
1145 1400148315 66.0156
1146 1400149536 65.4530
1147 1400150756 65.0279
1148 1400151977 64.9799
1149 1400153198 65.5880
1150 1400154418 66.0677
1151 1400155639 65.7279
1152 1400156860 65.1317
1153 1400158081 64.7563
1154 1400159301 64.3370
1155 1400160522 66.0916
1156 1400161743 68.2679
1157 1400162963 65.6355
1158 1400164184 64.3585
1159 1400165405 63.8792
1160 1400166625 63.7907
1161 1400167846 64.9072
1162 1400169067 65.2773
1163 1400170288 65.5310
1164 1400171508 63.8295
1165 1400172729 63.9187
1166 1400173950 64.1971
1167 1400175170 64.4418
1168 1400176391 64.3270
1169 1400177612 64.0916
1170 1400178833 64.0918
1171 1400180053 64.8239
1172 1400181274 64.2721
1173 1400182495 63.8034
1174 1400183715 64.2619
1175 1400184936 63.2438
1176 1400186157 63.3572
1177 1400187377 63.1889
1178 1400188598 63.1339
1179 1400189819 63.5623
1180 1400191040 63.9922
1181 1400192260 64.4764
1182 1400193481 63.6172
1183 1400194702 63.5548
1184 1400195922 63.7190
1185 1400197143 63.8246
1186 1400198364 63.6542
1187 1400199584 63.1184
1188 1400200805 63.6050
1189 1400202026 62.3631
1190 1400203247 62.5850
1191 1400204467 63.0203
1192 1400205688 63.3754
1193 1400206909 63.2327
1194 1400208129 63.4585
1195 1400209350 63.5636
1196 1400210571 62.9772
1197 1400211791 62.0770
1198 1400213012 62.6936
1199 1400214233 63.1520
1200 1400215454 63.4059
1201 1400216674 62.5216
1202 1400217895 62.0325
1203 1400219116 61.7000
1204 1400220336 62.2397
1205 1400221557 62.1883
1206 1400222778 62.0658
1207 1400223999 61.6545
1208 1400225219 61.1883
1209 1400226440 61.5655
1210 1400227661 61.9846
1211 1400228881 62.0543
1212 1400230102 62.2172
1213 1400231323 62.2460
1214 1400232543 61.9043
1215 1400233764 61.9327
1216 1400234985 61.7051
1217 1400236206 60.8978
1218 1400237426 61.7887
1219 1400238647 62.3626
1220 1400239868 61.6573
1221 1400241088 60.4761
1222 1400242309 61.3530
1223 1400243530 61.2232
1224 1400244750 61.4064
1225 1400245971 61.1217
1226 1400247192 60.9096
1227 1400248413 60.5124
1228 1400249633 60.7286
1229 1400250854 61.1123
1230 1400252075 61.1301
1231 1400253295 62.2703
1232 1400254516 61.0059
1233 1400255737 60.5600
1234 1400256958 60.3068
1235 1400258178 60.4816
1236 1400259399 60.5137
1237 1400260620 60.4991
1238 1400261840 60.9779
1239 1400263061 60.3516
1240 1400264282 60.1958
1241 1400265502 60.2040
1242 1400266723 60.5912
1243 1400267944 60.2402
1244 1400269165 60.2610
1245 1400270385 59.6801
1246 1400271606 59.6879
1247 1400272827 59.5660
1248 1400274047 59.8706
1249 1400275268 60.3251
1250 1400276489 60.6055
1251 1400277709 59.8447
1252 1400278930 59.4890
1253 1400280151 60.0945
1254 1400281372 59.9208
1255 1400282592 60.5399
1256 1400283813 60.5548
1257 1400285034 59.5682
1258 1400286254 58.9068
1259 1400287475 59.3417
1260 1400288696 58.9969
1261 1400289916 59.3735
1262 1400291137 64.0813
1263 1400292358 60.9697
1264 1400293579 59.2598
1265 1400294799 59.4725
1266 1400296020 59.1771
1267 1400297241 58.7128
1268 1400298461 59.0480
1269 1400299682 59.2714
1270 1400300903 58.7881
1271 1400302124 58.9315
1272 1400303344 60.9308
1273 1400304565 58.5338
1274 1400305786 58.7461
1275 1400307006 58.8553
1276 1400308227 58.0417
1277 1400309448 57.6987
1278 1400310668 58.3489
1279 1400311889 58.4633
1280 1400313110 58.4743
1281 1400314331 58.5126
1282 1400315551 58.5468
1283 1400316772 58.6754
1284 1400317993 58.0194
1285 1400319213 58.5629
1286 1400320434 58.8171
1287 1400321655 59.9038
1288 1400322875 58.4595
1289 1400324096 58.1102
1290 1400325317 58.2024
1291 1400326538 58.3028
1292 1400327758 58.4464
1293 1400328979 58.4338
1294 1400330200 57.9338
1295 1400331420 57.7758
1296 1400332641 57.6318
1297 1400333862 58.2183
1298 1400335083 58.0720
1299 1400336303 57.8593
1300 1400337524 57.4515
1301 1400338745 58.3218
1302 1400339965 57.2909
1303 1400341186 57.2788
1304 1400342407 57.2356
1305 1400343627 58.5436
1306 1400344848 58.0300
1307 1400346069 57.6250
1308 1400347290 56.3162
1309 1400348510 57.2776
1310 1400349731 57.2857
1311 1400350952 57.5835
1312 1400352172 58.3357
1313 1400353393 56.9695
1314 1400354614 57.0011
1315 1400355834 57.3702
1316 1400357055 56.9916
1317 1400358276 56.7916
1318 1400359497 57.3243
1319 1400360717 56.8572
1320 1400361938 56.8323
1321 1400363159 57.1013
1322 1400364379 56.5919
1323 1400365600 57.0520
1324 1400366821 56.9963
1325 1400368041 57.1842
1326 1400369262 56.4147
1327 1400370483 56.8089
1328 1400371704 56.4867
1329 1400372924 56.9070
1330 1400374145 57.0726
1331 1400375366 56.8425
1332 1400376586 57.0476
1333 1400377807 57.5235
1334 1400379028 57.6660
1335 1400380249 56.4223
1336 1400381469 56.8052
1337 1400382690 56.8601
1338 1400383911 56.2844
1339 1400385131 55.7130
1340 1400386352 56.1400
1341 1400387573 55.9176
1342 1400388793 56.6210
1343 1400390014 57.4674
1344 1400391235 56.3712
1345 1400392456 56.3731
1346 1400393676 56.0470
1347 1400394897 56.2885
1348 1400396118 56.5102
1349 1400397338 56.8130
1350 1400398559 56.1641
1351 1400399780 55.7118
1352 1400401000 56.3686
1353 1400402221 55.9929
1354 1400403442 56.2703
1355 1400404663 57.0516
1356 1400405883 56.7524
1357 1400407104 55.9501
1358 1400408325 55.8069
1359 1400409545 55.5477
1360 1400410766 55.7892
1361 1400411987 56.1357
1362 1400413208 56.7828
1363 1400414428 56.3893
1364 1400415649 55.7735
1365 1400416870 55.6454
1366 1400418090 55.7224
1367 1400419311 56.9683
1368 1400420532 56.5369
1369 1400421752 56.4288
1370 1400422973 55.9029
1371 1400424194 55.6686
1372 1400425415 55.6953
1373 1400426635 55.9220
1374 1400427856 56.4214
1375 1400429077 55.7853
1376 1400430297 55.1860
1377 1400431518 55.5733
1378 1400432739 55.7863
1379 1400433959 55.1225
1380 1400435180 55.4145
1381 1400436401 55.1802
1382 1400437622 55.2157
1383 1400438842 55.2674
1384 1400440063 55.3029
1385 1400441284 55.1403
1386 1400442504 55.9787
1387 1400443725 55.6764
1388 1400444946 55.3961
1389 1400446166 55.7260
1390 1400447387 55.1301
1391 1400448608 55.5360
1392 1400449829 55.2835
1393 1400451049 55.4412
1394 1400452270 55.4131
1395 1400453491 55.2971
1396 1400454711 55.4964
1397 1400455932 55.9510
1398 1400457153 56.1599
1399 1400458374 55.8623
1400 1400459594 55.8271
1401 1400460815 55.7161
1402 1400462036 55.5033
1403 1400463256 55.4523
1404 1400464477 55.6782
1405 1400465698 56.6506
1406 1400466918 55.7513
1407 1400468139 57.0384
1408 1400469360 55.1814
1409 1400470581 54.9752
1410 1400471801 55.0844
1411 1400473022 58.1566
1412 1400474243 57.2593
1413 1400475463 55.0519
1414 1400476684 55.8226
1415 1400477905 55.2618
1416 1400479125 55.5674
1417 1400480346 55.6475
1418 1400481567 55.9143
1419 1400482788 55.6548
1420 1400484008 55.3267
1421 1400485229 55.9346
1422 1400486450 55.1731
1423 1400487670 55.2973
1424 1400488891 56.1809
1425 1400490112 54.8723
1426 1400491333 55.4423
1427 1400492553 55.0154
1428 1400493774 56.5198
1429 1400494995 59.8276
1430 1400496215 69.1554
1431 1400497436 77.8044
1432 1400498657 70.4964
1433 1400499877 59.4027
1434 1400501098 55.8693
1435 1400502319 55.4488
1436 1400503540 56.0501
1437 1400504760 55.6994
1438 1400505981 55.7699
1439 1400507202 55.3100
1440 1400508422 55.0886
1441 1400509643 55.4441
1442 1400510864 55.8298
1443 1400512084 56.0547
1444 1400513305 55.4238
1445 1400514526 55.2965
1446 1400515747 55.3536
1447 1400516967 55.7296
1448 1400518188 55.9824
1449 1400519409 55.4574
1450 1400520629 55.4604
1451 1400521850 55.3922
1452 1400523071 55.7994
1453 1400524291 55.3384
1454 1400525512 56.3856
1455 1400526733 55.4850
1456 1400527954 55.2177
1457 1400529174 56.2533
1458 1400530395 55.3752
1459 1400531616 55.6330
1460 1400532836 55.9488
1461 1400534057 58.8239
1462 1400535278 56.4989
1463 1400536499 55.0418
1464 1400537719 55.4368
1465 1400538940 56.0941
1466 1400540161 55.8564
1467 1400541381 56.6463
1468 1400542602 56.1894
1469 1400543823 55.6416
1470 1400545043 55.5624
1471 1400546264 55.7297
1472 1400547485 55.3327
1473 1400548706 56.5872
1474 1400549926 56.6107
1475 1400551147 55.8435
1476 1400552368 55.6748
1477 1400553588 55.9008
1478 1400554809 55.2559
1479 1400556030 56.5049
1480 1400557250 56.7959
1481 1400558471 56.0284
1482 1400559692 55.8199
1483 1400560913 56.1894
1484 1400562133 55.9261
1485 1400563354 55.7886
1486 1400564575 56.0586
1487 1400565795 55.9846
1488 1400567016 56.2254
1489 1400568237 56.1640
1490 1400569458 57.4513
1491 1400570678 57.4438
1492 1400571899 57.5882
1493 1400573120 56.2963
1494 1400574340 56.2220
1495 1400575561 56.2560
1496 1400576782 56.6143
1497 1400578002 56.1523
1498 1400579223 57.0325
1499 1400580444 56.0204
1500 1400581665 56.1284
1501 1400582885 56.1519
1502 1400584106 56.3147
1503 1400585327 55.9337
1504 1400586547 56.8257
1505 1400587768 56.7626
1506 1400588989 56.2412
1507 1400590209 56.0494
1508 1400591430 56.6988
1509 1400592651 56.4003
1510 1400593872 57.4066
1511 1400595092 60.3447
1512 1400596313 56.7675
1513 1400597534 57.4281
1514 1400598754 56.5513
1515 1400599975 56.1345
1516 1400601196 56.2171
1517 1400602416 56.7377
1518 1400603637 56.6592
1519 1400604858 56.2717
1520 1400606079 56.4282
1521 1400607299 56.6622
1522 1400608520 56.8820
1523 1400609741 57.0497
1524 1400610961 56.0918
1525 1400612182 56.6785
1526 1400613403 56.4839
1527 1400614624 56.9378
1528 1400615844 56.8136
1529 1400617065 56.7063
1530 1400618286 56.5640
1531 1400619506 56.4900
1532 1400620727 55.6667
1533 1400621948 56.2364
1534 1400623168 56.9397
1535 1400624389 57.5059
1536 1400625610 58.1426
1537 1400626831 56.7034
1538 1400628051 56.5241
1539 1400629272 56.8273
1540 1400630493 57.1026
1541 1400631713 56.2306
1542 1400632934 56.5270
1543 1400634155 56.5734
1544 1400635375 56.6310
1545 1400636596 56.8726
1546 1400637817 56.7383
1547 1400639038 56.7415
1548 1400640258 57.3671
1549 1400641479 56.4443
1550 1400642700 56.2199
1551 1400643920 56.4915
1552 1400645141 56.6051
1553 1400646362 58.3085
1554 1400647583 57.9608
1555 1400648803 56.8541
1556 1400650024 56.9114
1557 1400651245 56.5291
1558 1400652465 56.5586
1559 1400653686 56.7723
1560 1400654907 57.0493
1561 1400656127 57.3468
1562 1400657348 57.1888
1563 1400658569 57.0531
1564 1400659790 56.5488
1565 1400661010 56.9458
1566 1400662231 57.0737
1567 1400663452 57.1996
1568 1400664672 57.0300
1569 1400665893 57.0501
1570 1400667114 57.5262
1571 1400668334 57.2917
1572 1400669555 58.1938
1573 1400670776 58.3070
1574 1400671997 57.5329
1575 1400673217 57.2228
1576 1400674438 57.5707
1577 1400675659 56.8765
1578 1400676879 56.7839
1579 1400678100 57.0465
1580 1400679321 57.0058
1581 1400680541 57.0595
1582 1400681762 56.2905
1583 1400682983 56.9774
1584 1400684204 57.0987
1585 1400685424 56.7047
1586 1400686645 56.9792
1587 1400687866 56.6066
1588 1400689086 57.2983
1589 1400690307 56.9156
1590 1400691528 57.7882
1591 1400692749 59.3036
1592 1400693969 76.5864
1593 1400695190 82.3475
1594 1400696411 57.4869
1595 1400697631 56.7912
1596 1400698852 56.8880
1597 1400700073 56.9710
1598 1400701293 56.6402
1599 1400702514 56.7016
1600 1400703735 57.1029
1601 1400704956 57.4137
1602 1400706176 57.0859
1603 1400707397 57.2930
1604 1400708618 57.2559
1605 1400709838 57.0212
1606 1400711059 56.2260
1607 1400712280 56.3774
1608 1400713500 56.0561
1609 1400714721 57.2050
1610 1400715942 59.9144
1611 1400717163 58.0857
1612 1400718383 56.2418
1613 1400719604 56.4396
1614 1400720825 56.8561
1615 1400722045 56.6730
1616 1400723266 57.3470
1617 1400724487 56.1211
1618 1400725708 56.9636
1619 1400726928 58.4319
1620 1400728149 57.1239
1621 1400729370 55.9888
1622 1400730590 56.5322
1623 1400731811 56.3083
1624 1400733032 57.2630
1625 1400734252 56.3527
1626 1400735473 56.3593
1627 1400736694 56.2442
1628 1400737915 56.6925
1629 1400739135 57.2265
1630 1400740356 56.5603
1631 1400741577 56.5633
1632 1400742797 56.9729
1633 1400744018 56.3050
1634 1400745239 55.7780
1635 1400746459 56.5693
1636 1400747680 55.9537
1637 1400748901 56.1746
1638 1400750122 55.9928
1639 1400751342 55.7384
1640 1400752563 56.0119
1641 1400753784 56.1241
1642 1400755004 55.9614
1643 1400756225 55.1053
1644 1400757446 55.8622
1645 1400758666 55.4567
1646 1400759887 56.2276
1647 1400761108 56.4867
1648 1400762329 55.9279
1649 1400763549 55.3988
1650 1400764770 54.9274
1651 1400765991 55.4429
1652 1400767211 55.7911
1653 1400768432 56.2355
1654 1400769653 55.7182
1655 1400770874 55.4958
1656 1400772094 55.1486
1657 1400773315 55.0740
1658 1400774536 55.8978
1659 1400775756 56.1435
1660 1400776977 57.7281
1661 1400778198 55.5864
1662 1400779418 55.0905
1663 1400780639 54.9707
1664 1400781860 54.9593
1665 1400783081 55.0780
1666 1400784301 54.9978
1667 1400785522 54.7177
1668 1400786743 54.5889
1669 1400787963 54.5511
1670 1400789184 54.0354
1671 1400790405 54.6648
1672 1400791625 54.8277
1673 1400792846 54.5822
1674 1400794067 54.9333
1675 1400795288 53.8808
1676 1400796508 54.3919
1677 1400797729 54.7876
1678 1400798950 54.6195
1679 1400800170 54.2939
1680 1400801391 54.1885
1681 1400802612 54.1440
1682 1400803833 54.2893
1683 1400805053 53.8602
1684 1400806274 53.2401
1685 1400807495 53.8885
1686 1400808715 53.5467
1687 1400809936 53.4274
1688 1400811157 53.1855
1689 1400812377 53.6400
1690 1400813598 53.9876
1691 1400814819 53.7081
1692 1400816040 53.1599
1693 1400817260 52.7473
1694 1400818481 53.1404
1695 1400819702 53.5996
1696 1400820922 53.4969
1697 1400822143 53.5168
1698 1400823364 53.2724
1699 1400824584 52.5338
1700 1400825805 52.7838
1701 1400827026 52.8936
1702 1400828247 53.0084
1703 1400829467 53.8917
1704 1400830688 51.9248
1705 1400831909 52.2698
1706 1400833129 52.0012
1707 1400834350 52.0312
1708 1400835571 51.8362
1709 1400836791 52.2921
1710 1400838012 53.3771
1711 1400839233 51.9630
1712 1400840454 52.1863
1713 1400841674 51.4352
1714 1400842895 51.2720
1715 1400844116 51.4406
1716 1400845336 51.0502
1717 1400846557 51.1591
1718 1400847778 50.8214
1719 1400848999 51.1024
1720 1400850219 50.4797
1721 1400851440 50.3568
1722 1400852661 51.3258
1723 1400853881 51.1173
1724 1400855102 50.6013
1725 1400856323 50.4192
1726 1400857543 50.3266
1727 1400858764 50.0393
1728 1400859985 50.0137
1729 1400861206 50.1634
1730 1400862426 49.9999
1731 1400863647 49.8265
1732 1400864868 49.7654
1733 1400866088 49.5916
1734 1400867309 49.2927
1735 1400868530 49.7367
1736 1400869750 49.1680
1737 1400870971 49.3951
1738 1400872192 48.7877
1739 1400873413 49.0208
1740 1400874633 49.0114
1741 1400875854 48.9505
1742 1400877075 48.6600
1743 1400878295 48.6685
1744 1400879516 48.3470
1745 1400880737 48.7257
1746 1400881958 48.6665
1747 1400883178 47.9861
1748 1400884399 47.6801
1749 1400885620 47.4300
1750 1400886840 47.4541
1751 1400888061 48.0459
1752 1400889282 48.7141
1753 1400890502 48.3010
1754 1400891723 46.9947
1755 1400892944 47.1610
1756 1400894165 46.8686
1757 1400895385 46.6007
1758 1400896606 46.4018
1759 1400897827 47.2644
1760 1400899047 46.7264
1761 1400900268 46.2240
1762 1400901489 45.9420
1763 1400902709 45.4637
1764 1400903930 45.8104
1765 1400905151 45.6173
1766 1400906372 45.9759
1767 1400907592 45.7741
1768 1400908813 45.5292
1769 1400910034 45.6269
1770 1400911254 45.7215
1771 1400912475 45.4179
1772 1400913696 44.5582
1773 1400914916 44.8336
1774 1400916137 44.9486
1775 1400917358 44.6882
1776 1400918579 44.8254
1777 1400919799 44.2079
1778 1400921020 44.1758
1779 1400922241 44.0088
1780 1400923461 44.0265
1781 1400924682 44.0391
1782 1400925903 43.6495
1783 1400927124 42.8175
1784 1400928344 43.5910
1785 1400929565 43.4125
1786 1400930786 42.8645
1787 1400932006 42.8576
1788 1400933227 42.8981
1789 1400934448 42.5473
1790 1400935668 42.7383
1791 1400936889 42.4034
1792 1400938110 41.8038
1793 1400939331 42.0704
1794 1400940551 42.0125
1795 1400941772 41.4835
1796 1400942993 42.3105
1797 1400944213 42.9884
1798 1400945434 41.6248
1799 1400946655 41.1971
1800 1400947875 41.0643
1801 1400949096 40.7544
1802 1400950317 41.2288
1803 1400951538 40.6389
1804 1400952758 40.1110
1805 1400953979 40.0422
1806 1400955200 40.1868
1807 1400956420 39.6586
1808 1400957641 39.8819
1809 1400958862 40.9086
1810 1400960083 40.0920
1811 1400961303 38.9679
1812 1400962524 39.2273
1813 1400963745 39.2312
1814 1400964965 38.9402
1815 1400966186 38.8515
1816 1400967407 38.5316
1817 1400968627 38.2920
1818 1400969848 38.1105
1819 1400971069 38.0258
1820 1400972290 37.8679
1821 1400973510 37.9822
1822 1400974731 37.5731
1823 1400975952 37.8106
1824 1400977172 37.3830
1825 1400978393 37.5023
1826 1400979614 36.4820
1827 1400980834 36.7411
1828 1400982055 36.8763
1829 1400983276 36.4222
1830 1400984497 36.1413
1831 1400985717 35.9749
1832 1400986938 35.7542
1833 1400988159 35.9580
1834 1400989379 35.7811
1835 1400990600 35.4789
1836 1400991821 35.3419
1837 1400993041 35.1561
1838 1400994262 34.9975
1839 1400995483 34.6232
1840 1400996704 34.9317
1841 1400997924 34.3893
1842 1400999145 34.1720
1843 1401000366 33.9318
1844 1401001586 34.1176
1845 1401002807 34.2132
1846 1401004028 34.0406
1847 1401005249 33.3930
1848 1401006469 33.3737
1849 1401007690 33.1089
1850 1401008911 32.9559
1851 1401010131 33.1387
1852 1401011352 33.0939
1853 1401012573 32.7160
1854 1401013793 32.5142
1855 1401015014 32.2263
1856 1401016235 31.7984
1857 1401017456 31.7575
1858 1401018676 32.1033
1859 1401019897 32.4179
1860 1401021118 31.5891
1861 1401022338 31.4854
1862 1401023559 30.9205
1863 1401024780 31.1582
1864 1401026000 30.9410
1865 1401027221 30.7573
1866 1401028442 30.3767
1867 1401029663 30.5315
1868 1401030883 29.9405
1869 1401032104 30.0531
1870 1401033325 29.9756
1871 1401034545 29.5262
1872 1401035766 29.4533
1873 1401036987 29.2100
1874 1401038208 28.9202
1875 1401039428 28.8722
1876 1401040649 28.8195
1877 1401041870 29.0002
1878 1401043090 28.8767
1879 1401044311 28.9490
1880 1401045532 28.1433
1881 1401046752 27.9237
1882 1401047973 27.8108
1883 1401049194 27.6689
1884 1401050415 27.6177
1885 1401051635 27.3200
1886 1401052856 27.3033
1887 1401054077 27.1887
1888 1401055297 26.8415
1889 1401056518 26.5226
1890 1401057739 26.4525
1891 1401058959 26.5028
1892 1401060180 26.2714
1893 1401061401 25.8440
1894 1401062622 25.8070
1895 1401063842 25.9183
1896 1401065063 25.7689
1897 1401066284 25.4302
1898 1401067504 25.1636
1899 1401068725 25.4327
1900 1401069946 25.1348
1901 1401071166 24.9068
1902 1401072387 25.0275
1903 1401073608 24.6458
1904 1401074829 24.4588
1905 1401076049 24.1810
1906 1401077270 24.2524
1907 1401078491 23.9877
1908 1401079711 24.0348
1909 1401080932 24.0184
1910 1401082153 23.6658
1911 1401083374 23.3960
1912 1401084594 23.3862
1913 1401085815 23.2013
1914 1401087036 22.9965
1915 1401088256 23.0402
1916 1401089477 22.9640
1917 1401090698 22.6983
1918 1401091918 22.4053
1919 1401093139 22.3606
1920 1401094360 22.3722
1921 1401095581 22.0478
1922 1401096801 21.9039
1923 1401098022 21.5400
1924 1401099243 21.5525
1925 1401100463 21.6098
1926 1401101684 21.4782
1927 1401102905 21.2344
1928 1401104125 20.8902
1929 1401105346 20.8637
1930 1401106567 20.6585
1931 1401107788 20.4325
1932 1401109008 20.4477
1933 1401110229 20.2776
1934 1401111450 20.2160
1935 1401112670 20.1828
1936 1401113891 19.9767
1937 1401115112 19.7103
1938 1401116333 19.5855
1939 1401117553 19.5655
1940 1401118774 19.2924
1941 1401119995 19.1753
1942 1401121215 19.0980
1943 1401122436 19.0425
1944 1401123657 18.8261
1945 1401124877 18.9435
1946 1401126098 18.9392
1947 1401127319 18.6009
1948 1401128540 18.3775
1949 1401129760 18.3981
1950 1401130981 18.1026
1951 1401132202 18.3408
1952 1401133422 18.3904
1953 1401134643 17.9835
1954 1401135864 17.8681
1955 1401137084 17.4802
1956 1401138305 17.5519
1957 1401139526 17.4158
1958 1401140747 17.3638
1959 1401141967 17.2545
1960 1401143188 17.0838
1961 1401144409 17.0103
1962 1401145629 16.8026
1963 1401146850 16.6616
1964 1401148071 16.7967
1965 1401149291 16.5717
1966 1401150512 16.2124
1967 1401151733 16.1879
1968 1401152954 16.0375
1969 1401154174 16.0040
1970 1401155395 16.0999
1971 1401156616 15.9349
1972 1401157836 15.7352
1973 1401159057 15.7739
1974 1401160278 15.6108
1975 1401161499 15.3360
1976 1401162719 15.2368
1977 1401163940 15.2297
1978 1401165161 15.1671
1979 1401166381 15.2275
1980 1401167602 15.1569
1981 1401168823 15.1356
1982 1401170043 14.8940
1983 1401171264 14.9783
1984 1401172485 14.6747
1985 1401173706 14.6679
1986 1401174926 14.5875
1987 1401176147 14.3947
1988 1401177368 14.3428
1989 1401178588 14.2444
1990 1401179809 14.3115
1991 1401181030 14.3197
1992 1401182250 13.8174
1993 1401183471 13.8745
1994 1401184692 14.0634
1995 1401185913 14.3942
1996 1401187133 13.8779
1997 1401188354 13.6812
1998 1401189575 13.5432
1999 1401190795 13.6514
2000 1401192016 13.4306
2001 1401193237 13.4087
2002 1401194458 13.3224
2003 1401195678 13.3430
2004 1401196899 17.7788
2005 1401198120 21.0926
2006 1401199340 13.7869
2007 1401200561 13.9535
2008 1401201782 13.4680
2009 1401203002 13.0889
2010 1401204223 13.0822
2011 1401205444 13.0504
2012 1401206665 12.9109
2013 1401207885 12.7037
2014 1401209106 12.6885
2015 1401210327 12.7279
2016 1401211547 12.4831
2017 1401212768 12.7216
2018 1401213989 12.7794
2019 1401215209 12.4677
2020 1401216430 12.3742
2021 1401217651 12.3372
2022 1401218872 12.3891
2023 1401220092 12.2510
2024 1401221313 12.2195
2025 1401222534 12.1990
2026 1401223754 12.2630
2027 1401224975 12.2239
2028 1401226196 12.1421
2029 1401227416 12.0763
2030 1401228637 12.0142
2031 1401229858 12.0092
2032 1401231079 11.8846
2033 1401232299 11.9005
2034 1401233520 11.8698
2035 1401234741 11.9769
2036 1401235961 11.8259
2037 1401237182 11.8799
2038 1401238403 11.9607
2039 1401239624 11.8538
2040 1401240844 11.8073
2041 1401242065 11.7297
2042 1401243286 11.8085
2043 1401244506 11.8273
2044 1401245727 11.7750
2045 1401246948 11.9695
2046 1401248168 11.9131
2047 1401249389 11.7371
